 # M = 0.35 Mo, Y = 0.2300, Z = 2.00000E-04, alpha = 1.20, X_D = 4.0E-05
 # Solar Mixture: Asplund et al. (2005)         
 # ------------------------------------------------------------------------------------------------------------
 # NMD   LOG AGE    Xc      LOG L     LOG TE    LOG Tc   LOG RHOc    M-CC       L-PP       L-CNO       L-GRA
 #        (yr)              (Lo)        (K)       (K)   (gr/cm^3)    (Mo)        (L)         (L)         (L)
 # ------------------------------------------------------------------------------------------------------------
   1  5.07455104   0.770   0.33672   3.64828   6.03356  -0.67288   0.00000   9.370E-01   0.000E+00   6.330E-02
   2  5.21295495   0.770   0.32850   3.64823   6.03740  -0.66135   0.00000   9.370E-01   0.000E+00   6.330E-02
   3  5.31774813   0.770   0.32105   3.64816   6.04085  -0.65098   0.00000   9.395E-01   0.000E+00   6.068E-02
   4  5.40210643   0.770   0.31395   3.64810   6.04413  -0.64111   0.00000   9.431E-01   0.000E+00   5.690E-02
   5  5.47271369   0.770   0.30771   3.64804   6.04702  -0.63243   0.00000   9.458E-01   0.000E+00   5.405E-02
   6  5.53343089   0.770   0.30178   3.64798   6.04977  -0.62416   0.00000   9.483E-01   0.000E+00   5.153E-02
   7  5.58669129   0.770   0.29584   3.64792   6.05252  -0.61590   0.00000   9.508E-01   0.000E+00   4.900E-02
   8  5.63412775   0.770   0.29024   3.64787   6.05509  -0.60816   0.00000   9.513E-01   0.000E+00   4.858E-02
   9  5.67688932   0.770   0.28467   3.64781   6.05765  -0.60046   0.00000   9.516E-01   0.000E+00   4.834E-02
  10  5.71581533   0.770   0.27910   3.64775   6.06021  -0.59276   0.00000   9.519E-01   0.000E+00   4.811E-02
  11  5.75153758   0.770   0.27345   3.64768   6.06280  -0.58497   0.00000   9.514E-01   0.000E+00   4.864E-02
  12  5.78454355   0.770   0.26774   3.64762   6.06543  -0.57709   0.00000   9.503E-01   0.000E+00   4.981E-02
  13  5.81521731   0.770   0.26202   3.64755   6.06805  -0.56921   0.00000   9.492E-01   0.000E+00   5.098E-02
  14  5.84386679   0.770   0.25631   3.64748   6.07067  -0.56133   0.00000   9.480E-01   0.000E+00   5.215E-02
  15  5.87074273   0.770   0.25002   3.64740   6.07354  -0.55271   0.00000   9.455E-01   0.000E+00   5.469E-02
  16  5.89605195   0.770   0.24371   3.64732   6.07642  -0.54406   0.00000   9.430E-01   0.000E+00   5.729E-02
  17  5.91996711   0.770   0.23739   3.64723   6.07930  -0.53541   0.00000   9.404E-01   0.000E+00   5.989E-02
  18  5.94263379   0.770   0.23059   3.64714   6.08239  -0.52611   0.00000   9.367E-01   0.000E+00   6.351E-02
  19  5.96417590   0.770   0.22321   3.64703   6.08574  -0.51603   0.00000   9.316E-01   0.000E+00   6.834E-02
  20  5.98469978   0.770   0.21584   3.64693   6.08908  -0.50596   0.00000   9.266E-01   0.000E+00   7.317E-02
  21  6.00429735   0.770   0.20800   3.64681   6.09264  -0.49527   0.00000   9.205E-01   0.000E+00   7.910E-02
  22  6.02304863   0.770   0.19902   3.64667   6.09669  -0.48309   0.00000   9.121E-01   0.000E+00   8.774E-02
  23  6.04102369   0.770   0.19005   3.64653   6.10074  -0.47090   0.00000   9.036E-01   0.000E+00   9.637E-02
  24  6.05828426   0.770   0.17979   3.64636   6.10535  -0.45702   0.00000   8.909E-01   0.000E+00   1.091E-01
  25  6.07488497   0.770   0.16860   3.64617   6.11037  -0.44190   0.00000   8.752E-01   0.000E+00   1.248E-01
  26  6.09087441   0.770   0.15640   3.64595   6.11584  -0.42546   0.00000   8.556E-01   0.000E+00   1.444E-01
  27  6.10629602   0.770   0.14233   3.64569   6.12213  -0.40655   0.00000   8.287E-01   0.000E+00   1.713E-01
  28  6.12118874   0.770   0.12629   3.64539   6.12928  -0.38504   0.00000   7.913E-01   0.000E+00   2.087E-01
  29  6.13558764   0.770   0.10819   3.64504   6.13734  -0.36079   0.00000   7.420E-01   0.000E+00   2.580E-01
  30  6.14952444   0.770   0.08673   3.64459   6.14689  -0.33210   0.00000   6.717E-01   0.000E+00   3.283E-01
  31  6.16302787   0.770   0.06110   3.64403   6.15819  -0.29807   0.00000   5.713E-01   0.000E+00   4.287E-01
  32  6.17612406   0.770   0.03134   3.64335   6.17128  -0.25869   0.00000   4.424E-01   0.000E+00   5.576E-01
  33  6.18883688   0.770  -0.00172   3.64258   6.18580  -0.21500   0.00000   3.012E-01   0.000E+00   6.988E-01
  34  6.20118811   0.770  -0.03691   3.64172   6.20121  -0.16860   0.00000   1.771E-01   0.000E+00   8.229E-01
  35  6.21319778   0.770  -0.07184   3.64085   6.21654  -0.12253   0.00000   9.049E-02   0.000E+00   9.095E-01
  36  6.22488425   0.770  -0.10481   3.64003   6.23094  -0.07919   0.00000   5.236E-02   0.000E+00   9.476E-01
  37  6.23626448   0.770  -0.13503   3.63927   6.24414  -0.03945   0.00000   3.400E-02   0.000E+00   9.660E-01
  38  6.24735409   0.770  -0.16292   3.63857   6.25632  -0.00273   0.00000   2.081E-02   0.000E+00   9.792E-01
  39  6.25816758   0.770  -0.18855   3.63792   6.26762   0.03120   0.00000   1.321E-02   0.000E+00   9.868E-01
  40  6.26871834   0.770  -0.21240   3.63732   6.27803   0.06261   0.00000   7.711E-03   0.000E+00   9.923E-01
  41  6.27901885   0.770  -0.23457   3.63678   6.28772   0.09186   0.00000   4.000E-03   0.000E+00   9.960E-01
  42  6.29875319   0.770  -0.27409   3.63580   6.30501   0.14407   0.00000   1.898E-03   0.000E+00   9.981E-01
  43  6.31762964   0.770  -0.30907   3.63496   6.32035   0.19043   0.00000   1.000E-03   0.000E+00   9.990E-01
  44  6.33571970   0.770  -0.34022   3.63421   6.33403   0.23175   0.00000   0.000E+00   0.000E+00   1.000E+00
  45  6.35308626   0.770  -0.36853   3.63354   6.34650   0.26943   0.00000   0.000E+00   0.000E+00   1.000E+00
  46  6.36978500   0.770  -0.39423   3.63295   6.35783   0.30370   0.00000   0.000E+00   0.000E+00   1.000E+00
  47  6.38586537   0.770  -0.41797   3.63241   6.36831   0.33544   0.00000   0.000E+00   0.000E+00   1.000E+00
  48  6.40137153   0.770  -0.43995   3.63192   6.37805   0.36489   0.00000   0.000E+00   0.000E+00   1.000E+00
  49  6.41634310   0.770  -0.46034   3.63148   6.38709   0.39227   0.00000   0.000E+00   0.000E+00   1.000E+00
  50  6.43081569   0.770  -0.47938   3.63106   6.39555   0.41788   0.00000   0.000E+00   0.000E+00   1.000E+00
  51  6.44482151   0.770  -0.49729   3.63069   6.40351   0.44201   0.00000   0.000E+00   0.000E+00   1.000E+00
  52  6.45838973   0.770  -0.51405   3.63034   6.41100   0.46470   0.00000   0.000E+00   0.000E+00   1.000E+00
  53  6.47154685   0.770  -0.52991   3.63003   6.41808   0.48617   0.00000   0.000E+00   0.000E+00   1.000E+00
  54  6.48431707   0.770  -0.54496   3.62972   6.42481   0.50658   0.00000   0.000E+00   0.000E+00   1.000E+00
  55  6.49672249   0.770  -0.55931   3.62944   6.43124   0.52607   0.00000   0.000E+00   0.000E+00   1.000E+00
  56  6.50878337   0.770  -0.57307   3.62919   6.43741   0.54479   0.00000   0.000E+00   0.000E+00   1.000E+00
  57  6.52051834   0.770  -0.58601   3.62894   6.44323   0.56245   0.00000   0.000E+00   0.000E+00   1.000E+00
  58  6.53194454   0.770  -0.59846   3.62871   6.44884   0.57946   0.00000   0.000E+00   0.000E+00   1.000E+00
  59  6.54307782   0.770  -0.61055   3.62849   6.45428   0.59598   0.00000   0.000E+00   0.000E+00   1.000E+00
  60  6.55393281   0.770  -0.62194   3.62827   6.45940   0.61155   0.00000   0.000E+00   0.000E+00   1.000E+00
  61  6.56452308   0.770  -0.63302   3.62807   6.46440   0.62672   0.00000   0.000E+00   0.000E+00   1.000E+00
  62  6.57486125   0.770  -0.64368   3.62788   6.46922   0.64135   0.00000   0.000E+00   0.000E+00   1.000E+00
  63  6.58495903   0.770  -0.65390   3.62770   6.47384   0.65538   0.00000   0.000E+00   0.000E+00   1.000E+00
  64  6.59482736   0.770  -0.66390   3.62753   6.47836   0.66912   0.00000   0.000E+00   0.000E+00   1.000E+00
  65  6.60447642   0.770  -0.67340   3.62737   6.48266   0.68220   0.00000   0.000E+00   0.000E+00   1.000E+00
  66  6.61391575   0.770  -0.68276   3.62721   6.48690   0.69510   0.00000   0.000E+00   0.000E+00   1.000E+00
  67  6.62315428   0.770  -0.69168   3.62706   6.49094   0.70738   0.00000   0.000E+00   0.000E+00   1.000E+00
  68  6.63220037   0.770  -0.70046   3.62691   6.49492   0.71949   0.00000   0.000E+00   0.000E+00   1.000E+00
  69  6.64106187   0.770  -0.70889   3.62677   6.49875   0.73112   0.00000   0.000E+00   0.000E+00   1.000E+00
  70  6.64974617   0.770  -0.71712   3.62664   6.50248   0.74249   0.00000   0.000E+00   0.000E+00   1.000E+00
  71  6.65826021   0.770  -0.72516   3.62651   6.50614   0.75360   0.00000   0.000E+00   0.000E+00   1.000E+00
  72  6.66661054   0.770  -0.73288   3.62638   6.50964   0.76427   0.00000   0.000E+00   0.000E+00   1.000E+00
  73  6.67480335   0.770  -0.74060   3.62626   6.51315   0.77494   0.00000   0.000E+00   0.000E+00   1.000E+00
  74  6.68284445   0.770  -0.74787   3.62614   6.51645   0.78501   0.00000   0.000E+00   0.000E+00   1.000E+00
  75  6.69073938   0.770  -0.75510   3.62603   6.51974   0.79503   0.00000   0.000E+00   0.000E+00   1.000E+00
  76  6.69849335   0.770  -0.76218   3.62592   6.52296   0.80484   0.00000   0.000E+00   0.000E+00   1.000E+00
  77  6.70611129   0.770  -0.76896   3.62582   6.52605   0.81425   0.00000   0.000E+00   0.000E+00   1.000E+00
  78  6.71359792   0.770  -0.77574   3.62571   6.52914   0.82366   0.00000   0.000E+00   0.000E+00   1.000E+00
  79  6.72095767   0.770  -0.78228   3.62561   6.53212   0.83274   0.00000   0.000E+00   0.000E+00   1.000E+00
  80  6.72819477   0.770  -0.78864   3.62551   6.53501   0.84157   0.00000   0.000E+00   0.000E+00   1.000E+00
  81  6.73531325   0.770  -0.79500   3.62542   6.53791   0.85041   0.00000   0.000E+00   0.000E+00   1.000E+00
  82  6.74231692   0.770  -0.80111   3.62532   6.54069   0.85890   0.00000   0.000E+00   0.000E+00   1.000E+00
  83  6.74920945   0.770  -0.80708   3.62523   6.54341   0.86720   0.00000   0.000E+00   0.000E+00   1.000E+00
  84  6.75599429   0.770  -0.81305   3.62514   6.54613   0.87550   0.00000   0.000E+00   0.000E+00   1.000E+00
  85  6.76267476   0.770  -0.81883   3.62505   6.54877   0.88354   0.00000   0.000E+00   0.000E+00   1.000E+00
  86  6.76925402   0.770  -0.82442   3.62496   6.55132   0.89133   0.00000   0.000E+00   0.000E+00   1.000E+00
  87  6.77573510   0.770  -0.83001   3.62488   6.55388   0.89912   0.00000   0.000E+00   0.000E+00   1.000E+00
  88  6.78212089   0.770  -0.83555   3.62480   6.55641   0.90684   0.00000   0.000E+00   0.000E+00   1.000E+00
  89  6.78841413   0.770  -0.84079   3.62472   6.55880   0.91415   0.00000   0.000E+00   0.000E+00   1.000E+00
  90  6.79461748   0.770  -0.84604   3.62465   6.56119   0.92146   0.00000   0.000E+00   0.000E+00   1.000E+00
  91  6.80073347   0.770  -0.85129   3.62457   6.56359   0.92876   0.00000   0.000E+00   0.000E+00   1.000E+00
  92  6.80676453   0.770  -0.85634   3.62450   6.56590   0.93582   0.00000   0.000E+00   0.000E+00   1.000E+00
  93  6.81271298   0.770  -0.86126   3.62443   6.56814   0.94268   0.00000   0.000E+00   0.000E+00   1.000E+00
  94  6.81858106   0.770  -0.86618   3.62436   6.57039   0.94954   0.00000   0.000E+00   0.000E+00   1.000E+00
  95  6.82437090   0.770  -0.87109   3.62429   6.57264   0.95640   0.00000   0.000E+00   0.000E+00   1.000E+00
  96  6.83008457   0.770  -0.87578   3.62422   6.57478   0.96295   0.00000   0.000E+00   0.000E+00   1.000E+00
  97  6.83572404   0.770  -0.88039   3.62415   6.57689   0.96939   0.00000   0.000E+00   0.000E+00   1.000E+00
  98  6.84129122   0.770  -0.88500   3.62409   6.57899   0.97583   0.00000   0.000E+00   0.000E+00   1.000E+00
  99  6.84678794   0.770  -0.88961   3.62402   6.58110   0.98227   0.00000   0.000E+00   0.000E+00   1.000E+00
 100  6.85221596   0.770  -0.89402   3.62396   6.58312   0.98844   0.00000   0.000E+00   0.000E+00   1.000E+00
 101  6.85757697   0.770  -0.89834   3.62390   6.58509   0.99449   0.00000   0.000E+00   0.000E+00   1.000E+00
 102  6.86287261   0.770  -0.90266   3.62384   6.58707   1.00054   0.00000   0.000E+00   0.000E+00   1.000E+00
 103  6.86810445   0.770  -0.90698   3.62378   6.58904   1.00658   0.00000   0.000E+00   0.000E+00   1.000E+00
 104  6.87327402   0.770  -0.91121   3.62372   6.59097   1.01250   0.00000   0.000E+00   0.000E+00   1.000E+00
 105  6.87838278   0.770  -0.91526   3.62366   6.59283   1.01818   0.00000   0.000E+00   0.000E+00   1.000E+00
 106  6.88343213   0.770  -0.91932   3.62361   6.59468   1.02386   0.00000   0.000E+00   0.000E+00   1.000E+00
 107  6.88842346   0.770  -0.92337   3.62355   6.59654   1.02954   0.00000   0.000E+00   0.000E+00   1.000E+00
 108  6.89335807   0.770  -0.92742   3.62350   6.59839   1.03522   0.00000   0.000E+00   0.000E+00   1.000E+00
 109  6.89823724   0.770  -0.93130   3.62344   6.60016   1.04064   0.00000   0.000E+00   0.000E+00   1.000E+00
 110  6.90306220   0.770  -0.93510   3.62339   6.60190   1.04597   0.00000   0.000E+00   0.000E+00   1.000E+00
 111  6.90783415   0.770  -0.93890   3.62334   6.60365   1.05130   0.00000   0.000E+00   0.000E+00   1.000E+00
 112  6.91255423   0.770  -0.94270   3.62328   6.60539   1.05662   0.00000   0.000E+00   0.000E+00   1.000E+00
 113  6.91722357   0.770  -0.94650   3.62323   6.60713   1.06195   0.00000   0.000E+00   0.000E+00   1.000E+00
 114  6.92184323   0.770  -0.95011   3.62318   6.60878   1.06702   0.00000   0.000E+00   0.000E+00   1.000E+00
 115  6.92641427   0.770  -0.95368   3.62314   6.61041   1.07202   0.00000   0.000E+00   0.000E+00   1.000E+00
 116  6.93093770   0.770  -0.95724   3.62309   6.61204   1.07702   0.00000   0.000E+00   0.000E+00   1.000E+00
 117  6.93541451   0.770  -0.96081   3.62304   6.61367   1.08202   0.00000   0.000E+00   0.000E+00   1.000E+00
 118  6.93984563   0.770  -0.96437   3.62299   6.61530   1.08702   0.00000   0.000E+00   0.000E+00   1.000E+00
 119  6.94423200   0.770  -0.96782   3.62295   6.61688   1.09185   0.00000   0.000E+00   0.000E+00   1.000E+00
 120  6.94857451   0.770  -0.97116   3.62290   6.61841   1.09654   0.00000   0.000E+00   0.000E+00   1.000E+00
 121  6.95287403   0.770  -0.97450   3.62285   6.61994   1.10123   0.00000   0.000E+00   0.000E+00   1.000E+00
 122  6.95713140   0.770  -0.97784   3.62281   6.62147   1.10592   0.00000   0.000E+00   0.000E+00   1.000E+00
 123  6.96134744   0.770  -0.98119   3.62276   6.62301   1.11061   0.00000   0.000E+00   0.000E+00   1.000E+00
 124  6.96552295   0.770  -0.98453   3.62271   6.62454   1.11530   0.00000   0.000E+00   0.000E+00   1.000E+00
 125  6.96965869   0.770  -0.98768   3.62267   6.62598   1.11973   0.00000   1.525E-04   0.000E+00   9.998E-01
 126  6.97375542   0.770  -0.99081   3.62263   6.62741   1.12413   0.00000   3.196E-04   0.000E+00   9.997E-01
 127  6.97781387   0.770  -0.99395   3.62259   6.62885   1.12853   0.00000   4.867E-04   0.000E+00   9.995E-01
 128  6.98183474   0.770  -0.99708   3.62255   6.63028   1.13294   0.00000   6.538E-04   0.000E+00   9.993E-01
 129  6.98581872   0.770  -1.00021   3.62251   6.63171   1.13734   0.00000   8.209E-04   0.000E+00   9.992E-01
 130  6.98976649   0.770  -1.00334   3.62247   6.63315   1.14174   0.00000   9.880E-04   0.000E+00   9.990E-01
 131  6.99367870   0.770  -1.00630   3.62243   6.63449   1.14591   0.00000   1.000E-03   0.000E+00   9.990E-01
 132  6.99755598   0.770  -1.00924   3.62239   6.63582   1.15005   0.00000   1.000E-03   0.000E+00   9.990E-01
 133  7.00139895   0.770  -1.01218   3.62236   6.63716   1.15420   0.00000   1.000E-03   0.000E+00   9.990E-01
 134  7.00520821   0.770  -1.01512   3.62232   6.63849   1.15834   0.00000   1.000E-03   0.000E+00   9.990E-01
 135  7.00898436   0.770  -1.01805   3.62228   6.63983   1.16249   0.00000   1.000E-03   0.000E+00   9.990E-01
 136  7.01272795   0.770  -1.02099   3.62224   6.64116   1.16664   0.00000   1.000E-03   0.000E+00   9.990E-01
 137  7.01643955   0.770  -1.02383   3.62220   6.64244   1.17066   0.00000   1.000E-03   0.000E+00   9.990E-01
 138  7.02011969   0.770  -1.02659   3.62216   6.64367   1.17457   0.00000   1.000E-03   0.000E+00   9.990E-01
 139  7.02376891   0.770  -1.02935   3.62213   6.64490   1.17849   0.00000   1.000E-03   0.000E+00   9.990E-01
 140  7.02738773   0.770  -1.03210   3.62209   6.64614   1.18240   0.00000   1.000E-03   0.000E+00   9.990E-01
 141  7.03097664   0.770  -1.03486   3.62205   6.64737   1.18632   0.00000   1.000E-03   0.000E+00   9.990E-01
 142  7.03453613   0.770  -1.03762   3.62202   6.64860   1.19023   0.00000   1.000E-03   0.000E+00   9.990E-01
 143  7.03806669   0.770  -1.04038   3.62198   6.64983   1.19415   0.00000   1.000E-03   0.000E+00   9.990E-01
 144  7.04156878   0.770  -1.04301   3.62195   6.65099   1.19790   0.00000   1.000E-03   0.000E+00   9.990E-01
 145  7.04504285   0.770  -1.04559   3.62191   6.65213   1.20159   0.00000   1.000E-03   0.000E+00   9.990E-01
 146  7.04848936   0.770  -1.04817   3.62188   6.65327   1.20528   0.00000   1.000E-03   0.000E+00   9.990E-01
 147  7.05190872   0.770  -1.05076   3.62185   6.65440   1.20897   0.00000   1.000E-03   0.000E+00   9.990E-01
 148  7.05530138   0.770  -1.05334   3.62181   6.65554   1.21266   0.00000   1.000E-03   0.000E+00   9.990E-01
 149  7.05866774   0.770  -1.05593   3.62178   6.65668   1.21636   0.00000   1.000E-03   0.000E+00   9.990E-01
 150  7.06200820   0.770  -1.05851   3.62175   6.65781   1.22005   0.00000   1.000E-03   0.000E+00   9.990E-01
 151  7.06532317   0.770  -1.06102   3.62171   6.65891   1.22364   0.00000   1.063E-03   0.000E+00   9.989E-01
 152  7.06861303   0.770  -1.06344   3.62168   6.65996   1.22713   0.00000   1.192E-03   0.000E+00   9.988E-01
 153  7.07187815   0.770  -1.06586   3.62165   6.66101   1.23061   0.00000   1.321E-03   0.000E+00   9.987E-01
 154  7.07511890   0.770  -1.06828   3.62162   6.66206   1.23410   0.00000   1.450E-03   0.000E+00   9.985E-01
 155  7.07833566   0.770  -1.07070   3.62159   6.66311   1.23758   0.00000   1.579E-03   0.000E+00   9.984E-01
 156  7.08152876   0.770  -1.07313   3.62155   6.66416   1.24107   0.00000   1.709E-03   0.000E+00   9.983E-01
 157  7.08469855   0.770  -1.07555   3.62152   6.66521   1.24455   0.00000   1.838E-03   0.000E+00   9.982E-01
 158  7.08784538   0.770  -1.07797   3.62149   6.66626   1.24804   0.00000   1.967E-03   0.000E+00   9.980E-01
 159  7.09096957   0.770  -1.08028   3.62146   6.66725   1.25138   0.00000   2.000E-03   0.000E+00   9.980E-01
 160  7.09407145   0.770  -1.08255   3.62143   6.66822   1.25467   0.00000   2.000E-03   0.000E+00   9.980E-01
 161  7.09715133   0.770  -1.08482   3.62140   6.66919   1.25796   0.00000   2.000E-03   0.000E+00   9.980E-01
 162  7.10020952   0.770  -1.08709   3.62137   6.67016   1.26125   0.00000   2.000E-03   0.000E+00   9.980E-01
 163  7.10324633   0.770  -1.08936   3.62134   6.67113   1.26455   0.00000   2.000E-03   0.000E+00   9.980E-01
 164  7.10626205   0.770  -1.09163   3.62131   6.67210   1.26784   0.00000   2.000E-03   0.000E+00   9.980E-01
 165  7.10925697   0.770  -1.09390   3.62128   6.67307   1.27113   0.00000   2.000E-03   0.000E+00   9.980E-01
 166  7.11223138   0.770  -1.09617   3.62125   6.67404   1.27442   0.00000   2.000E-03   0.000E+00   9.980E-01
 167  7.11518556   0.770  -1.09837   3.62123   6.67498   1.27762   0.00000   2.000E-03   0.000E+00   9.980E-01
 168  7.11811978   0.770  -1.10050   3.62120   6.67588   1.28072   0.00000   2.000E-03   0.000E+00   9.980E-01
 169  7.12103430   0.770  -1.10262   3.62118   6.67678   1.28383   0.00000   2.000E-03   0.000E+00   9.980E-01
 170  7.12392940   0.770  -1.10475   3.62115   6.67768   1.28693   0.00000   2.000E-03   0.000E+00   9.980E-01
 171  7.12680533   0.770  -1.10687   3.62112   6.67858   1.29003   0.00000   2.000E-03   0.000E+00   9.980E-01
 172  7.12966233   0.770  -1.10900   3.62110   6.67948   1.29314   0.00000   2.000E-03   0.000E+00   9.980E-01
 173  7.13250067   0.770  -1.11112   3.62107   6.68038   1.29624   0.00000   2.000E-03   0.000E+00   9.980E-01
 174  7.13532058   0.770  -1.11325   3.62104   6.68128   1.29935   0.00000   2.000E-03   0.000E+00   9.980E-01
 175  7.13812229   0.770  -1.11537   3.62102   6.68218   1.30245   0.00000   2.000E-03   0.000E+00   9.980E-01
 176  7.14090604   0.770  -1.11741   3.62099   6.68304   1.30544   0.00000   2.072E-03   0.000E+00   9.979E-01
 177  7.14367207   0.770  -1.11940   3.62097   6.68387   1.30837   0.00000   2.178E-03   0.000E+00   9.978E-01
 178  7.14642059   0.770  -1.12139   3.62094   6.68471   1.31130   0.00000   2.285E-03   0.000E+00   9.977E-01
 179  7.14915182   0.770  -1.12338   3.62092   6.68554   1.31423   0.00000   2.391E-03   0.000E+00   9.976E-01
 180  7.15186599   0.770  -1.12537   3.62089   6.68638   1.31716   0.00000   2.497E-03   0.000E+00   9.975E-01
 181  7.15456330   0.770  -1.12736   3.62087   6.68721   1.32009   0.00000   2.604E-03   0.000E+00   9.974E-01
 182  7.15724396   0.770  -1.12935   3.62084   6.68805   1.32302   0.00000   2.710E-03   0.000E+00   9.973E-01
 183  7.15990817   0.770  -1.13134   3.62081   6.68889   1.32596   0.00000   2.816E-03   0.000E+00   9.972E-01
 184  7.16255614   0.770  -1.13333   3.62079   6.68972   1.32889   0.00000   2.923E-03   0.000E+00   9.971E-01
 185  7.16518807   0.770  -1.13529   3.62076   6.69054   1.33177   0.00000   3.027E-03   0.000E+00   9.970E-01
 186  7.16780414   0.770  -1.13715   3.62074   6.69132   1.33454   0.00000   3.127E-03   0.000E+00   9.969E-01
 187  7.17040454   0.770  -1.13901   3.62072   6.69209   1.33731   0.00000   3.226E-03   0.000E+00   9.968E-01
 188  7.17298947   0.770  -1.14087   3.62070   6.69287   1.34008   0.00000   3.326E-03   0.000E+00   9.967E-01
 189  7.17555910   0.770  -1.14273   3.62068   6.69365   1.34284   0.00000   3.425E-03   0.000E+00   9.966E-01
 190  7.17811362   0.770  -1.14459   3.62065   6.69442   1.34561   0.00000   3.524E-03   0.000E+00   9.965E-01
 191  7.18065320   0.770  -1.14645   3.62063   6.69520   1.34838   0.00000   3.624E-03   0.000E+00   9.964E-01
 192  7.18317801   0.770  -1.14831   3.62061   6.69597   1.35115   0.00000   3.723E-03   0.000E+00   9.963E-01
 193  7.18568824   0.770  -1.15017   3.62059   6.69675   1.35391   0.00000   3.823E-03   0.000E+00   9.962E-01
 194  7.18818403   0.770  -1.15203   3.62057   6.69752   1.35668   0.00000   3.922E-03   0.000E+00   9.961E-01
 195  7.19066557   0.770  -1.15386   3.62055   6.69829   1.35941   0.00000   4.020E-03   0.000E+00   9.960E-01
 196  7.19313301   0.770  -1.15560   3.62053   6.69901   1.36202   0.00000   4.114E-03   0.000E+00   9.959E-01
 197  7.19558650   0.770  -1.15734   3.62050   6.69973   1.36463   0.00000   4.207E-03   0.000E+00   9.958E-01
 198  7.19802622   0.770  -1.15908   3.62048   6.70045   1.36723   0.00000   4.300E-03   0.000E+00   9.957E-01
 199  7.20045230   0.770  -1.16082   3.62046   6.70117   1.36984   0.00000   4.393E-03   0.000E+00   9.956E-01
 200  7.20286491   0.770  -1.16256   3.62044   6.70189   1.37244   0.00000   4.486E-03   0.000E+00   9.955E-01
 201  7.20526419   0.770  -1.16430   3.62042   6.70261   1.37505   0.00000   4.579E-03   0.000E+00   9.954E-01
 202  7.20765029   0.770  -1.16604   3.62040   6.70333   1.37766   0.00000   4.672E-03   0.000E+00   9.953E-01
 203  7.21002335   0.770  -1.16777   3.62038   6.70405   1.38026   0.00000   4.765E-03   0.000E+00   9.952E-01
 204  7.21238351   0.770  -1.16951   3.62036   6.70477   1.38287   0.00000   4.858E-03   0.000E+00   9.951E-01
 205  7.21473092   0.770  -1.17125   3.62034   6.70549   1.38548   0.00000   4.951E-03   0.000E+00   9.950E-01
 206  7.21706570   0.770  -1.17294   3.62032   6.70619   1.38801   0.00000   5.041E-03   0.000E+00   9.950E-01
 207  7.21938801   0.770  -1.17456   3.62030   6.70685   1.39047   0.00000   5.128E-03   0.000E+00   9.949E-01
 208  7.22169795   0.770  -1.17619   3.62029   6.70752   1.39293   0.00000   5.215E-03   0.000E+00   9.948E-01
 209  7.22399568   0.770  -1.17781   3.62027   6.70819   1.39539   0.00000   5.302E-03   0.000E+00   9.947E-01
 210  7.22628132   0.770  -1.17943   3.62025   6.70886   1.39784   0.00000   5.389E-03   0.000E+00   9.946E-01
 211  7.22855499   0.770  -1.18106   3.62023   6.70952   1.40030   0.00000   5.476E-03   0.000E+00   9.945E-01
 212  7.23081682   0.770  -1.18268   3.62022   6.71019   1.40276   0.00000   5.563E-03   0.000E+00   9.944E-01
 213  7.23306692   0.770  -1.18431   3.62020   6.71086   1.40522   0.00000   5.650E-03   0.000E+00   9.944E-01
 214  7.23530544   0.770  -1.18593   3.62018   6.71153   1.40768   0.00000   5.737E-03   0.000E+00   9.943E-01
 215  7.23753247   0.770  -1.18756   3.62017   6.71220   1.41013   0.00000   5.824E-03   0.000E+00   9.942E-01
 216  7.23974814   0.770  -1.18918   3.62015   6.71286   1.41259   0.00000   5.911E-03   0.000E+00   9.941E-01
 217  7.24195256   0.770  -1.19080   3.62013   6.71353   1.41505   0.00000   5.998E-03   0.000E+00   9.940E-01
 218  7.24414585   0.770  -1.19232   3.62011   6.71415   1.41737   0.00000   6.158E-03   0.000E+00   9.938E-01
 219  7.24632812   0.770  -1.19383   3.62010   6.71477   1.41969   0.00000   6.320E-03   0.000E+00   9.937E-01
 220  7.24849948   0.770  -1.19535   3.62008   6.71539   1.42201   0.00000   6.482E-03   0.000E+00   9.935E-01
 221  7.25066004   0.770  -1.19686   3.62007   6.71601   1.42432   0.00000   6.645E-03   0.000E+00   9.934E-01
 222  7.25280990   0.770  -1.19838   3.62005   6.71663   1.42664   0.00000   6.807E-03   0.000E+00   9.932E-01
 223  7.25494917   0.770  -1.19989   3.62003   6.71725   1.42896   0.00000   6.970E-03   0.000E+00   9.930E-01
 224  7.25707796   0.770  -1.20140   3.62002   6.71787   1.43128   0.00000   7.132E-03   0.000E+00   9.929E-01
 225  7.25919636   0.770  -1.20292   3.62000   6.71849   1.43360   0.00000   7.294E-03   0.000E+00   9.927E-01
 226  7.26130448   0.770  -1.20443   3.61998   6.71911   1.43591   0.00000   7.457E-03   0.000E+00   9.925E-01
 227  7.26340242   0.770  -1.20595   3.61997   6.71973   1.43823   0.00000   7.619E-03   0.000E+00   9.924E-01
 228  7.26549027   0.770  -1.20746   3.61995   6.72035   1.44055   0.00000   7.781E-03   0.000E+00   9.922E-01
 229  7.26756813   0.770  -1.20897   3.61994   6.72097   1.44287   0.00000   7.944E-03   0.000E+00   9.921E-01
 230  7.26963609   0.770  -1.21042   3.61992   6.72157   1.44510   0.00000   8.049E-03   0.000E+00   9.920E-01
 231  7.27169426   0.770  -1.21183   3.61991   6.72215   1.44728   0.00000   8.125E-03   0.000E+00   9.919E-01
 232  7.27374272   0.770  -1.21325   3.61989   6.72272   1.44947   0.00000   8.201E-03   0.000E+00   9.918E-01
 233  7.27578156   0.770  -1.21466   3.61988   6.72330   1.45165   0.00000   8.277E-03   0.000E+00   9.917E-01
 234  7.27781087   0.770  -1.21607   3.61987   6.72388   1.45384   0.00000   8.352E-03   0.000E+00   9.916E-01
 235  7.27983075   0.770  -1.21748   3.61985   6.72446   1.45602   0.00000   8.428E-03   0.000E+00   9.916E-01
 236  7.28184127   0.770  -1.21890   3.61984   6.72503   1.45821   0.00000   8.504E-03   0.000E+00   9.915E-01
 237  7.28384253   0.770  -1.22031   3.61983   6.72561   1.46039   0.00000   8.580E-03   0.000E+00   9.914E-01
 238  7.28583462   0.770  -1.22172   3.61981   6.72619   1.46258   0.00000   8.655E-03   0.000E+00   9.913E-01
 239  7.28781760   0.770  -1.22313   3.61980   6.72677   1.46476   0.00000   8.731E-03   0.000E+00   9.913E-01
 240  7.28979157   0.770  -1.22455   3.61978   6.72735   1.46695   0.00000   8.807E-03   0.000E+00   9.912E-01
 241  7.29175661   0.770  -1.22596   3.61977   6.72792   1.46913   0.00000   8.883E-03   0.000E+00   9.911E-01
 242  7.29371280   0.770  -1.22737   3.61976   6.72850   1.47132   0.00000   8.958E-03   0.000E+00   9.910E-01
 243  7.29566022   0.770  -1.22874   3.61974   6.72906   1.47344   0.00000   9.095E-03   0.000E+00   9.909E-01
 244  7.29759894   0.770  -1.23005   3.61973   6.72960   1.47550   0.00000   9.307E-03   0.000E+00   9.907E-01
 245  7.29952905   0.770  -1.23137   3.61972   6.73014   1.47755   0.00000   9.519E-03   0.000E+00   9.905E-01
 246  7.30145062   0.770  -1.23268   3.61971   6.73068   1.47961   0.00000   9.731E-03   0.000E+00   9.903E-01
 247  7.30336372   0.770  -1.23400   3.61970   6.73122   1.48166   0.00000   9.942E-03   0.000E+00   9.901E-01
 248  7.30526844   0.770  -1.23531   3.61968   6.73176   1.48371   0.00000   1.015E-02   0.000E+00   9.898E-01
 249  7.30716483   0.770  -1.23663   3.61967   6.73229   1.48577   0.00000   1.037E-02   0.000E+00   9.896E-01
 250  7.30905298   0.770  -1.23794   3.61966   6.73283   1.48782   0.00000   1.058E-02   0.000E+00   9.894E-01
 251  7.31093296   0.770  -1.23926   3.61965   6.73337   1.48988   0.00000   1.079E-02   0.000E+00   9.892E-01
 252  7.31280483   0.770  -1.24057   3.61964   6.73391   1.49193   0.00000   1.100E-02   0.000E+00   9.890E-01
 253  7.31466868   0.770  -1.24189   3.61962   6.73445   1.49399   0.00000   1.121E-02   0.000E+00   9.888E-01
 254  7.31652455   0.770  -1.24320   3.61961   6.73499   1.49604   0.00000   1.142E-02   0.000E+00   9.886E-01
 255  7.31837253   0.770  -1.24451   3.61960   6.73553   1.49810   0.00000   1.164E-02   0.000E+00   9.884E-01
 256  7.32021268   0.770  -1.24583   3.61959   6.73606   1.50015   0.00000   1.185E-02   0.000E+00   9.882E-01
 257  7.32204507   0.770  -1.24712   3.61958   6.73659   1.50217   0.00000   1.206E-02   0.000E+00   9.879E-01
 258  7.32386975   0.770  -1.24834   3.61957   6.73709   1.50410   0.00000   1.225E-02   0.000E+00   9.877E-01
 259  7.32568680   0.770  -1.24956   3.61956   6.73760   1.50603   0.00000   1.245E-02   0.000E+00   9.875E-01
 260  7.32749629   0.770  -1.25078   3.61955   6.73810   1.50796   0.00000   1.265E-02   0.000E+00   9.874E-01
 261  7.32929826   0.770  -1.25201   3.61954   6.73860   1.50990   0.00000   1.284E-02   0.000E+00   9.872E-01
 262  7.33109279   0.770  -1.25323   3.61953   6.73910   1.51183   0.00000   1.304E-02   0.000E+00   9.870E-01
 263  7.33287993   0.770  -1.25445   3.61952   6.73961   1.51376   0.00000   1.324E-02   0.000E+00   9.868E-01
 264  7.33465975   0.770  -1.25567   3.61951   6.74011   1.51569   0.00000   1.344E-02   0.000E+00   9.866E-01
 265  7.33643230   0.770  -1.25690   3.61950   6.74061   1.51762   0.00000   1.363E-02   0.000E+00   9.864E-01
 266  7.33819765   0.770  -1.25812   3.61949   6.74111   1.51955   0.00000   1.383E-02   0.000E+00   9.862E-01
 267  7.33995585   0.770  -1.25934   3.61948   6.74161   1.52148   0.00000   1.403E-02   0.000E+00   9.860E-01
 268  7.34170697   0.770  -1.26056   3.61947   6.74212   1.52342   0.00000   1.422E-02   0.000E+00   9.858E-01
 269  7.34345105   0.770  -1.26179   3.61946   6.74262   1.52535   0.00000   1.442E-02   0.000E+00   9.856E-01
 270  7.34518815   0.770  -1.26301   3.61945   6.74312   1.52728   0.00000   1.462E-02   0.000E+00   9.854E-01
 271  7.34691834   0.770  -1.26423   3.61944   6.74362   1.52921   0.00000   1.482E-02   0.000E+00   9.852E-01
 272  7.34864166   0.770  -1.26545   3.61943   6.74412   1.53113   0.00000   1.501E-02   0.000E+00   9.850E-01
 273  7.35035817   0.770  -1.26658   3.61942   6.74459   1.53295   0.00000   1.520E-02   0.000E+00   9.848E-01
 274  7.35206792   0.770  -1.26772   3.61941   6.74506   1.53476   0.00000   1.538E-02   0.000E+00   9.846E-01
 275  7.35377096   0.770  -1.26885   3.61940   6.74552   1.53657   0.00000   1.556E-02   0.000E+00   9.844E-01
 276  7.35546735   0.770  -1.26999   3.61940   6.74599   1.53838   0.00000   1.575E-02   0.000E+00   9.843E-01
 277  7.35715715   0.770  -1.27113   3.61939   6.74646   1.54020   0.00000   1.593E-02   0.000E+00   9.841E-01
 278  7.35884039   0.770  -1.27226   3.61938   6.74693   1.54201   0.00000   1.611E-02   0.000E+00   9.839E-01
 279  7.36051713   0.770  -1.27340   3.61937   6.74740   1.54382   0.00000   1.630E-02   0.000E+00   9.837E-01
 280  7.36218743   0.770  -1.27453   3.61936   6.74786   1.54563   0.00000   1.648E-02   0.000E+00   9.835E-01
 281  7.36385133   0.770  -1.27567   3.61935   6.74833   1.54745   0.00000   1.666E-02   0.000E+00   9.833E-01
 282  7.36550887   0.770  -1.27681   3.61934   6.74880   1.54926   0.00000   1.685E-02   0.000E+00   9.832E-01
 283  7.36716012   0.770  -1.27794   3.61934   6.74927   1.55107   0.00000   1.703E-02   0.000E+00   9.830E-01
 284  7.36880511   0.770  -1.27908   3.61933   6.74973   1.55288   0.00000   1.721E-02   0.000E+00   9.828E-01
 285  7.37044389   0.770  -1.28021   3.61932   6.75020   1.55470   0.00000   1.740E-02   0.000E+00   9.826E-01
 286  7.37207651   0.770  -1.28135   3.61931   6.75067   1.55651   0.00000   1.758E-02   0.000E+00   9.824E-01
 287  7.37370302   0.770  -1.28248   3.61930   6.75114   1.55832   0.00000   1.776E-02   0.000E+00   9.822E-01
 288  7.37532345   0.770  -1.28362   3.61929   6.75160   1.56013   0.00000   1.795E-02   0.000E+00   9.821E-01
 289  7.37693787   0.770  -1.28470   3.61929   6.75205   1.56187   0.00000   1.820E-02   0.000E+00   9.818E-01
 290  7.37854630   0.770  -1.28575   3.61928   6.75249   1.56357   0.00000   1.849E-02   0.000E+00   9.815E-01
 291  7.38014881   0.770  -1.28680   3.61927   6.75292   1.56527   0.00000   1.877E-02   0.000E+00   9.812E-01
 292  7.38174541   0.770  -1.28786   3.61926   6.75336   1.56697   0.00000   1.905E-02   0.000E+00   9.809E-01
 293  7.38333618   0.770  -1.28891   3.61926   6.75379   1.56867   0.00000   1.934E-02   0.000E+00   9.807E-01
 294  7.38492113   0.770  -1.28997   3.61925   6.75423   1.57037   0.00000   1.962E-02   0.000E+00   9.804E-01
 295  7.38650032   0.770  -1.29102   3.61924   6.75467   1.57207   0.00000   1.991E-02   0.000E+00   9.801E-01
 296  7.38807379   0.770  -1.29207   3.61924   6.75510   1.57377   0.00000   2.019E-02   0.000E+00   9.798E-01
 297  7.38964158   0.770  -1.29313   3.61923   6.75554   1.57547   0.00000   2.047E-02   0.000E+00   9.795E-01
 298  7.39120374   0.770  -1.29418   3.61922   6.75598   1.57717   0.00000   2.076E-02   0.000E+00   9.792E-01
 299  7.39276029   0.770  -1.29523   3.61922   6.75641   1.57887   0.00000   2.104E-02   0.000E+00   9.790E-01
 300  7.39431128   0.770  -1.29629   3.61921   6.75685   1.58057   0.00000   2.133E-02   0.000E+00   9.787E-01
 301  7.39585676   0.770  -1.29734   3.61920   6.75728   1.58227   0.00000   2.161E-02   0.000E+00   9.784E-01
 302  7.39739675   0.770  -1.29839   3.61920   6.75772   1.58397   0.00000   2.189E-02   0.000E+00   9.781E-01
 303  7.39893130   0.770  -1.29945   3.61919   6.75816   1.58567   0.00000   2.218E-02   0.000E+00   9.778E-01
 304  7.40046045   0.770  -1.30050   3.61918   6.75859   1.58737   0.00000   2.246E-02   0.000E+00   9.775E-01
 305  7.40198423   0.770  -1.30155   3.61918   6.75903   1.58906   0.00000   2.275E-02   0.000E+00   9.773E-01
 306  7.40350269   0.770  -1.30260   3.61917   6.75946   1.59075   0.00000   2.303E-02   0.000E+00   9.770E-01
 307  7.40501586   0.770  -1.30358   3.61916   6.75987   1.59234   0.00000   2.335E-02   0.000E+00   9.767E-01
 308  7.40652377   0.770  -1.30455   3.61916   6.76028   1.59393   0.00000   2.366E-02   0.000E+00   9.763E-01
 309  7.40802646   0.770  -1.30553   3.61915   6.76068   1.59552   0.00000   2.398E-02   0.000E+00   9.760E-01
 310  7.40952397   0.770  -1.30650   3.61915   6.76109   1.59711   0.00000   2.430E-02   0.000E+00   9.757E-01
 311  7.41101634   0.770  -1.30748   3.61914   6.76150   1.59871   0.00000   2.461E-02   0.000E+00   9.754E-01
 312  7.41250360   0.770  -1.30845   3.61914   6.76190   1.60030   0.00000   2.493E-02   0.000E+00   9.751E-01
 313  7.41398578   0.770  -1.30943   3.61913   6.76231   1.60189   0.00000   2.524E-02   0.000E+00   9.748E-01
 314  7.41546292   0.770  -1.31041   3.61913   6.76272   1.60348   0.00000   2.556E-02   0.000E+00   9.744E-01
 315  7.41693505   0.770  -1.31138   3.61912   6.76312   1.60507   0.00000   2.588E-02   0.000E+00   9.741E-01
 316  7.41840221   0.770  -1.31236   3.61912   6.76353   1.60666   0.00000   2.619E-02   0.000E+00   9.738E-01
 317  7.41986443   0.770  -1.31333   3.61911   6.76394   1.60825   0.00000   2.651E-02   0.000E+00   9.735E-01
 318  7.42132174   0.770  -1.31431   3.61911   6.76434   1.60984   0.00000   2.683E-02   0.000E+00   9.732E-01
 319  7.42277418   0.770  -1.31528   3.61910   6.76475   1.61143   0.00000   2.714E-02   0.000E+00   9.729E-01
 320  7.42422178   0.770  -1.31626   3.61910   6.76516   1.61302   0.00000   2.746E-02   0.000E+00   9.725E-01
 321  7.42566456   0.770  -1.31723   3.61909   6.76556   1.61461   0.00000   2.777E-02   0.000E+00   9.722E-01
 322  7.42710257   0.770  -1.31821   3.61909   6.76597   1.61620   0.00000   2.809E-02   0.000E+00   9.719E-01
 323  7.42853584   0.770  -1.31919   3.61908   6.76638   1.61779   0.00000   2.841E-02   0.000E+00   9.716E-01
 324  7.42996439   0.770  -1.32016   3.61907   6.76678   1.61938   0.00000   2.872E-02   0.000E+00   9.713E-01
 325  7.43138826   0.770  -1.32113   3.61907   6.76719   1.62096   0.00000   2.904E-02   0.000E+00   9.710E-01
 326  7.43280747   0.770  -1.32203   3.61907   6.76756   1.62244   0.00000   2.938E-02   0.000E+00   9.706E-01
 327  7.43422206   0.770  -1.32293   3.61906   6.76794   1.62393   0.00000   2.972E-02   0.000E+00   9.703E-01
 328  7.43563206   0.770  -1.32384   3.61906   6.76832   1.62541   0.00000   3.007E-02   0.000E+00   9.699E-01
 329  7.43703750   0.770  -1.32474   3.61905   6.76870   1.62690   0.00000   3.041E-02   0.000E+00   9.696E-01
 330  7.43843840   0.770  -1.32564   3.61905   6.76908   1.62839   0.00000   3.075E-02   0.000E+00   9.693E-01
 331  7.43983480   0.770  -1.32654   3.61904   6.76946   1.62987   0.00000   3.109E-02   0.000E+00   9.689E-01
 332  7.44122672   0.770  -1.32745   3.61904   6.76984   1.63136   0.00000   3.143E-02   0.000E+00   9.686E-01
 333  7.44261420   0.770  -1.32835   3.61903   6.77022   1.63284   0.00000   3.177E-02   0.000E+00   9.682E-01
 334  7.44399725   0.770  -1.32925   3.61903   6.77060   1.63433   0.00000   3.211E-02   0.000E+00   9.679E-01
 335  7.44537592   0.770  -1.33015   3.61903   6.77098   1.63581   0.00000   3.246E-02   0.000E+00   9.675E-01
 336  7.44675022   0.770  -1.33106   3.61902   6.77136   1.63730   0.00000   3.280E-02   0.000E+00   9.672E-01
 337  7.44812019   0.770  -1.33196   3.61902   6.77174   1.63878   0.00000   3.314E-02   0.000E+00   9.669E-01
 338  7.44948585   0.770  -1.33286   3.61901   6.77212   1.64027   0.00000   3.348E-02   0.000E+00   9.665E-01
 339  7.45084723   0.770  -1.33376   3.61901   6.77250   1.64175   0.00000   3.382E-02   0.000E+00   9.662E-01
 340  7.45220436   0.770  -1.33467   3.61900   6.77288   1.64324   0.00000   3.416E-02   0.000E+00   9.658E-01
 341  7.45355725   0.770  -1.33557   3.61900   6.77326   1.64473   0.00000   3.450E-02   0.000E+00   9.655E-01
 342  7.45490595   0.770  -1.33647   3.61899   6.77364   1.64621   0.00000   3.485E-02   0.000E+00   9.652E-01
 343  7.45625047   0.770  -1.33737   3.61899   6.77402   1.64770   0.00000   3.519E-02   0.000E+00   9.648E-01
 344  7.45759084   0.770  -1.33828   3.61899   6.77440   1.64918   0.00000   3.553E-02   0.000E+00   9.645E-01
 345  7.45892709   0.770  -1.33918   3.61898   6.77478   1.65067   0.00000   3.587E-02   0.000E+00   9.641E-01
 346  7.46025924   0.770  -1.34004   3.61898   6.77514   1.65209   0.00000   3.625E-02   0.000E+00   9.637E-01
 347  7.46158731   0.770  -1.34087   3.61898   6.77549   1.65347   0.00000   3.666E-02   0.000E+00   9.633E-01
 348  7.46291134   0.770  -1.34170   3.61897   6.77585   1.65485   0.00000   3.707E-02   0.000E+00   9.629E-01
 349  7.46423134   0.770  -1.34253   3.61897   6.77620   1.65623   0.00000   3.748E-02   0.000E+00   9.625E-01
 350  7.46554734   0.770  -1.34336   3.61897   6.77656   1.65761   0.00000   3.789E-02   0.000E+00   9.621E-01
 351  7.46685937   0.770  -1.34420   3.61896   6.77691   1.65899   0.00000   3.830E-02   0.000E+00   9.617E-01
 352  7.46816744   0.770  -1.34503   3.61896   6.77726   1.66037   0.00000   3.871E-02   0.000E+00   9.613E-01
 353  7.46947159   0.770  -1.34586   3.61896   6.77762   1.66175   0.00000   3.912E-02   0.000E+00   9.609E-01
 354  7.47077183   0.770  -1.34669   3.61896   6.77797   1.66313   0.00000   3.953E-02   0.000E+00   9.605E-01
 355  7.47206819   0.770  -1.34752   3.61895   6.77833   1.66451   0.00000   3.994E-02   0.000E+00   9.601E-01
 356  7.47336069   0.770  -1.34835   3.61895   6.77868   1.66589   0.00000   4.034E-02   0.000E+00   9.597E-01
 357  7.47464936   0.770  -1.34919   3.61895   6.77903   1.66727   0.00000   4.075E-02   0.000E+00   9.592E-01
 358  7.47593421   0.770  -1.35002   3.61895   6.77939   1.66865   0.00000   4.116E-02   0.000E+00   9.588E-01
 359  7.47721528   0.770  -1.35085   3.61894   6.77974   1.67003   0.00000   4.157E-02   0.000E+00   9.584E-01
 360  7.47849258   0.770  -1.35168   3.61894   6.78010   1.67141   0.00000   4.198E-02   0.000E+00   9.580E-01
 361  7.47976613   0.770  -1.35251   3.61894   6.78045   1.67279   0.00000   4.239E-02   0.000E+00   9.576E-01
 362  7.48103596   0.770  -1.35334   3.61893   6.78081   1.67417   0.00000   4.280E-02   0.000E+00   9.572E-01
 363  7.48230208   0.770  -1.35418   3.61893   6.78116   1.67555   0.00000   4.321E-02   0.000E+00   9.568E-01
 364  7.48356453   0.770  -1.35501   3.61893   6.78151   1.67693   0.00000   4.362E-02   0.000E+00   9.564E-01
 365  7.48482331   0.770  -1.35584   3.61893   6.78187   1.67831   0.00000   4.403E-02   0.000E+00   9.560E-01
 366  7.48607846   0.770  -1.35667   3.61892   6.78222   1.67969   0.00000   4.444E-02   0.000E+00   9.556E-01
 367  7.48732999   0.770  -1.35750   3.61892   6.78258   1.68108   0.00000   4.484E-02   0.000E+00   9.552E-01
 368  7.48857793   0.770  -1.35829   3.61892   6.78291   1.68239   0.00000   4.529E-02   0.000E+00   9.547E-01
 369  7.48982228   0.770  -1.35906   3.61892   6.78324   1.68367   0.00000   4.575E-02   0.000E+00   9.542E-01
 370  7.49106309   0.770  -1.35983   3.61891   6.78357   1.68495   0.00000   4.622E-02   0.000E+00   9.538E-01
 371  7.49230036   0.770  -1.36059   3.61891   6.78390   1.68623   0.00000   4.669E-02   0.000E+00   9.533E-01
 372  7.49353411   0.770  -1.36136   3.61891   6.78423   1.68751   0.00000   4.715E-02   0.000E+00   9.528E-01
 373  7.49476437   0.770  -1.36212   3.61891   6.78456   1.68879   0.00000   4.762E-02   0.000E+00   9.524E-01
 374  7.49599115   0.770  -1.36289   3.61891   6.78489   1.69006   0.00000   4.808E-02   0.000E+00   9.519E-01
 375  7.49721448   0.770  -1.36366   3.61890   6.78522   1.69134   0.00000   4.855E-02   0.000E+00   9.515E-01
 376  7.49843437   0.770  -1.36442   3.61890   6.78555   1.69262   0.00000   4.901E-02   0.000E+00   9.510E-01
 377  7.49965085   0.770  -1.36519   3.61890   6.78588   1.69390   0.00000   4.948E-02   0.000E+00   9.505E-01
 378  7.50086393   0.770  -1.36595   3.61890   6.78621   1.69518   0.00000   4.995E-02   0.000E+00   9.501E-01
 379  7.50207362   0.770  -1.36672   3.61890   6.78654   1.69646   0.00000   5.041E-02   0.000E+00   9.496E-01
 380  7.50327996   0.770  -1.36749   3.61889   6.78687   1.69774   0.00000   5.088E-02   0.000E+00   9.491E-01
 381  7.50448296   0.770  -1.36825   3.61889   6.78720   1.69901   0.00000   5.134E-02   0.000E+00   9.487E-01
 382  7.50568263   0.770  -1.36902   3.61889   6.78753   1.70029   0.00000   5.181E-02   0.000E+00   9.482E-01
 383  7.50687900   0.770  -1.36978   3.61889   6.78786   1.70157   0.00000   5.227E-02   0.000E+00   9.477E-01
 384  7.50807208   0.770  -1.37055   3.61888   6.78819   1.70285   0.00000   5.274E-02   0.000E+00   9.473E-01
 385  7.50926190   0.770  -1.37131   3.61888   6.78852   1.70413   0.00000   5.321E-02   0.000E+00   9.468E-01
 386  7.51044846   0.770  -1.37208   3.61888   6.78885   1.70541   0.00000   5.367E-02   0.000E+00   9.463E-01
 387  7.51163179   0.770  -1.37285   3.61888   6.78918   1.70669   0.00000   5.414E-02   0.000E+00   9.459E-01
 388  7.51281190   0.770  -1.37361   3.61888   6.78951   1.70796   0.00000   5.460E-02   0.000E+00   9.454E-01
 389  7.51398882   0.770  -1.37438   3.61887   6.78984   1.70924   0.00000   5.507E-02   0.000E+00   9.449E-01
 390  7.51516255   0.770  -1.37514   3.61887   6.79017   1.71052   0.00000   5.553E-02   0.000E+00   9.445E-01
 391  7.51633313   0.770  -1.37591   3.61887   6.79050   1.71180   0.00000   5.600E-02   0.000E+00   9.440E-01
 392  7.63301423   0.770  -1.44605   3.61885   6.82195   1.82971   0.00000   1.325E-01   0.000E+00   8.675E-01
 393  7.72489323   0.770  -1.49574   3.61894   6.84641   1.91146   0.00000   2.434E-01   0.000E+00   7.566E-01
 394  7.80068780   0.770  -1.53199   3.61900   6.86578   1.96592   0.00000   3.750E-01   0.000E+00   6.250E-01
 395  7.86519926   0.770  -1.55796   3.61897   6.88064   1.99930   0.00000   5.085E-01   0.000E+00   4.915E-01
 396  7.92135571   0.769  -1.57724   3.61886   6.89211   2.01973   0.00000   6.302E-01   0.000E+00   3.698E-01
 397  7.97107523   0.769  -1.59078   3.61872   6.90041   2.03041   0.00193   7.305E-01   0.000E+00   2.695E-01
 398  8.01568291   0.769  -1.59998   3.61857   6.90597   2.03537   0.00672   8.066E-01   0.000E+00   1.934E-01
 399  8.05613258   0.769  -1.60722   3.61839   6.91071   2.03569   0.02151   9.373E-01   0.000E+00   6.284E-02
 400  8.09313372   0.769  -1.60406   3.61800   6.91058   2.01002   0.03826   1.277E+00   0.000E+00  -2.771E-01
 401  8.12722843   0.770  -1.60384   3.61806   6.90949   2.01404   0.01250   8.165E-01   0.000E+00   1.835E-01
 402  8.15884024   0.770  -1.60864   3.61811   6.91162   2.02397   0.01714   8.781E-01   0.000E+00   1.219E-01
 403  8.18830636   0.769  -1.61210   3.61810   6.91354   2.02825   0.02353   9.269E-01   0.000E+00   7.326E-02
 404  8.21589966   0.769  -1.61420   3.61807   6.91482   2.02926   0.03052   9.611E-01   0.000E+00   3.876E-02
 405  8.24184403   0.769  -1.61524   3.61803   6.91555   2.02878   0.03681   9.839E-01   0.000E+00   1.570E-02
 406  8.26632549   0.769  -1.61560   3.61801   6.91591   2.02773   0.03710   9.998E-01   0.000E+00   6.813E-05
 407  8.28950025   0.769  -1.61531   3.61800   6.91589   2.02657   0.01496   1.008E+00   0.000E+00  -7.493E-03
 408  8.31150076   0.769  -1.61537   3.61799   6.91593   2.02641   0.00339   1.009E+00   0.000E+00  -8.248E-03
 409  8.33244029   0.769  -1.61616   3.61801   6.91614   2.02834   0.01385   9.949E-01   0.000E+00   5.161E-03
 410  8.35241649   0.769  -1.61695   3.61802   6.91634   2.03027   0.02430   9.812E-01   0.000E+00   1.857E-02
 411  8.37151412   0.769  -1.61731   3.61803   6.91648   2.03087   0.03243   9.804E-01   0.000E+00   1.939E-02
 412  8.38980720   0.769  -1.61720   3.61802   6.91657   2.02999   0.03801   9.938E-01   0.000E+00   6.327E-03
 413  8.40736079   0.769  -1.61709   3.61801   6.91665   2.02912   0.04359   1.007E+00   0.000E+00  -6.733E-03
 414  8.42423237   0.769  -1.61635   3.61801   6.91636   2.02789   0.03306   1.011E+00   0.000E+00  -1.090E-02
 415  8.44047295   0.769  -1.61557   3.61800   6.91605   2.02664   0.02151   1.015E+00   0.000E+00  -1.450E-02
 416  8.45612805   0.769  -1.61479   3.61800   6.91573   2.02538   0.00996   1.018E+00   0.000E+00  -1.810E-02
 417  8.47123839   0.769  -1.61422   3.61800   6.91549   2.02451   0.00188   1.019E+00   0.000E+00  -1.890E-02
 418  8.48584064   0.769  -1.61493   3.61801   6.91570   2.02602   0.01553   1.002E+00   0.000E+00  -2.161E-03
 419  8.49996784   0.769  -1.61564   3.61803   6.91591   2.02753   0.02918   9.851E-01   0.000E+00   1.457E-02
 420  8.51364994   0.769  -1.61578   3.61803   6.91598   2.02767   0.02783   9.845E-01   0.000E+00   1.515E-02
 421  8.52691413   0.769  -1.61551   3.61802   6.91596   2.02679   0.01536   9.960E-01   0.000E+00   3.749E-03
 422  8.53978518   0.769  -1.61524   3.61801   6.91593   2.02591   0.00289   1.007E+00   0.000E+00  -7.654E-03
 423  8.55228574   0.769  -1.61530   3.61801   6.91596   2.02594   0.00801   1.007E+00   0.000E+00  -7.581E-03
 424  8.56443652   0.769  -1.61545   3.61801   6.91602   2.02623   0.01845   1.004E+00   0.000E+00  -4.042E-03
 425  8.57625658   0.769  -1.61561   3.61802   6.91607   2.02653   0.02888   1.000E+00   0.000E+00  -5.018E-04
 426  8.58776344   0.769  -1.61576   3.61802   6.91613   2.02682   0.03932   9.966E-01   0.000E+00   3.038E-03
 427  8.59897328   0.769  -1.61536   3.61802   6.91595   2.02624   0.04003   9.974E-01   0.000E+00   2.211E-03
 428  8.60990103   0.769  -1.61451   3.61802   6.91559   2.02498   0.03308   1.002E+00   0.000E+00  -2.066E-03
 429  8.62056056   0.769  -1.61367   3.61802   6.91524   2.02372   0.02612   1.006E+00   0.000E+00  -6.342E-03
 430  8.63096471   0.769  -1.61282   3.61802   6.91488   2.02245   0.01917   1.010E+00   0.000E+00  -1.062E-02
 431  8.64112543   0.769  -1.61197   3.61802   6.91453   2.02119   0.01221   1.014E+00   0.000E+00  -1.489E-02
 432  8.65105386   0.769  -1.61113   3.61802   6.91417   2.01992   0.00525   1.019E+00   0.000E+00  -1.917E-02
 433  8.66076038   0.769  -1.61070   3.61802   6.91398   2.01928   0.00486   1.017E+00   0.000E+00  -1.777E-02
 434  8.67025469   0.769  -1.61156   3.61803   6.91431   2.02054   0.02472   9.988E-01   0.000E+00   1.158E-03
 435  8.67954587   0.769  -1.61242   3.61803   6.91464   2.02180   0.04457   9.802E-01   0.000E+00   2.008E-02
 436  8.68864244   0.769  -1.61238   3.61803   6.91465   2.02166   0.02909   9.883E-01   0.000E+00   1.201E-02
 437  8.69755237   0.769  -1.61221   3.61803   6.91462   2.02133   0.00892   9.999E-01   0.000E+00   3.565E-04
 438  8.70628318   0.769  -1.61222   3.61803   6.91465   2.02130   0.00000   1.004E+00   0.000E+00  -3.436E-03
 439  8.71484193   0.769  -1.61237   3.61803   6.91471   2.02148   0.00000   1.001E+00   0.000E+00  -9.908E-04
 440  8.72323526   0.769  -1.61251   3.61803   6.91477   2.02167   0.00000   9.984E-01   0.000E+00   1.455E-03
 441  8.73146944   0.769  -1.61264   3.61803   6.91483   2.02184   0.00000   9.961E-01   0.000E+00   3.636E-03
 442  8.73955041   0.769  -1.61251   3.61803   6.91477   2.02165   0.00000   9.974E-01   0.000E+00   2.291E-03
 443  8.74748376   0.769  -1.61238   3.61803   6.91472   2.02146   0.00000   9.988E-01   0.000E+00   9.450E-04
 444  8.75527478   0.769  -1.61225   3.61804   6.91467   2.02127   0.00000   1.000E+00   0.000E+00  -4.006E-04
 445  8.76292850   0.769  -1.61212   3.61804   6.91461   2.02108   0.00000   1.001E+00   0.000E+00  -1.746E-03
 446  8.77044966   0.769  -1.61199   3.61804   6.91456   2.02089   0.00000   1.003E+00   0.000E+00  -3.092E-03
 447  8.77784279   0.769  -1.61179   3.61804   6.91448   2.02060   0.00000   1.003E+00   0.000E+00  -3.528E-03
 448  8.78511217   0.769  -1.61158   3.61804   6.91439   2.02030   0.00000   1.003E+00   0.000E+00  -3.788E-03
 449  8.79226186   0.769  -1.61137   3.61804   6.91430   2.01999   0.00000   1.004E+00   0.000E+00  -4.048E-03
 450  8.79929576   0.769  -1.61116   3.61804   6.91421   2.01968   0.00000   1.004E+00   0.000E+00  -4.308E-03
 451  8.80621755   0.769  -1.61095   3.61804   6.91412   2.01937   0.00000   1.004E+00   0.000E+00  -4.568E-03
 452  8.81303075   0.769  -1.61074   3.61804   6.91403   2.01907   0.00000   1.004E+00   0.000E+00  -4.828E-03
 453  8.81973871   0.769  -1.61053   3.61804   6.91394   2.01876   0.00000   1.005E+00   0.000E+00  -5.087E-03
 454  8.82634464   0.769  -1.61032   3.61804   6.91385   2.01845   0.00000   1.005E+00   0.000E+00  -5.347E-03
 455  8.83285159   0.769  -1.61010   3.61804   6.91376   2.01813   0.00000   1.005E+00   0.000E+00  -5.376E-03
 456  8.83926248   0.769  -1.60988   3.61804   6.91366   2.01781   0.00000   1.005E+00   0.000E+00  -5.402E-03
 457  8.84558011   0.769  -1.60966   3.61804   6.91357   2.01749   0.00000   1.005E+00   0.000E+00  -5.429E-03
 458  8.85180716   0.769  -1.60944   3.61804   6.91347   2.01717   0.00000   1.005E+00   0.000E+00  -5.455E-03
 459  8.85794619   0.769  -1.60922   3.61805   6.91338   2.01684   0.00000   1.006E+00   0.000E+00  -5.481E-03
 460  8.86399964   0.769  -1.60900   3.61805   6.91328   2.01652   0.00000   1.006E+00   0.000E+00  -5.508E-03
 461  8.86996988   0.769  -1.60878   3.61805   6.91319   2.01620   0.00000   1.006E+00   0.000E+00  -5.534E-03
 462  8.87585915   0.769  -1.60855   3.61805   6.91309   2.01588   0.00000   1.006E+00   0.000E+00  -5.560E-03
 463  8.88166963   0.769  -1.60833   3.61805   6.91300   2.01556   0.00000   1.006E+00   0.000E+00  -5.586E-03
 464  8.88740339   0.769  -1.60812   3.61805   6.91291   2.01524   0.00000   1.006E+00   0.000E+00  -5.588E-03
 465  8.89306245   0.769  -1.60790   3.61805   6.91282   2.01493   0.00000   1.006E+00   0.000E+00  -5.564E-03
 466  8.89864870   0.769  -1.60769   3.61805   6.91273   2.01461   0.00000   1.006E+00   0.000E+00  -5.540E-03
 467  8.90416402   0.769  -1.60747   3.61805   6.91263   2.01430   0.00000   1.006E+00   0.000E+00  -5.515E-03
 468  8.90961017   0.769  -1.60726   3.61805   6.91254   2.01399   0.00000   1.006E+00   0.000E+00  -5.491E-03
 469  8.91498887   0.769  -1.60705   3.61806   6.91245   2.01368   0.00000   1.005E+00   0.000E+00  -5.467E-03
 470  8.92030177   0.769  -1.60683   3.61806   6.91236   2.01336   0.00000   1.005E+00   0.000E+00  -5.443E-03
 471  8.92555046   0.768  -1.60662   3.61806   6.91227   2.01305   0.00000   1.005E+00   0.000E+00  -5.418E-03
 472  8.93073647   0.768  -1.60640   3.61806   6.91218   2.01274   0.00000   1.005E+00   0.000E+00  -5.394E-03
 473  8.93586129   0.768  -1.60619   3.61806   6.91209   2.01243   0.00000   1.005E+00   0.000E+00  -5.367E-03
 474  8.94092633   0.768  -1.60599   3.61806   6.91201   2.01214   0.00000   1.005E+00   0.000E+00  -5.336E-03
 475  8.94593299   0.768  -1.60579   3.61806   6.91192   2.01184   0.00000   1.005E+00   0.000E+00  -5.305E-03
 476  8.95088258   0.768  -1.60558   3.61806   6.91183   2.01154   0.00000   1.005E+00   0.000E+00  -5.274E-03
 477  8.95577640   0.768  -1.60538   3.61806   6.91174   2.01125   0.00000   1.005E+00   0.000E+00  -5.243E-03
 478  8.96061568   0.768  -1.60517   3.61807   6.91165   2.01095   0.00000   1.005E+00   0.000E+00  -5.212E-03
 479  8.96540164   0.768  -1.60497   3.61807   6.91157   2.01065   0.00000   1.005E+00   0.000E+00  -5.181E-03
 480  8.97013543   0.768  -1.60476   3.61807   6.91148   2.01035   0.00000   1.005E+00   0.000E+00  -5.150E-03
 481  8.97481818   0.768  -1.60456   3.61807   6.91139   2.01006   0.00000   1.005E+00   0.000E+00  -5.119E-03
 482  8.97945097   0.768  -1.60436   3.61807   6.91130   2.00976   0.00000   1.005E+00   0.000E+00  -5.088E-03
 483  8.98403486   0.768  -1.60416   3.61807   6.91122   2.00948   0.00000   1.005E+00   0.000E+00  -5.057E-03
 484  8.98857088   0.768  -1.60397   3.61807   6.91114   2.00920   0.00000   1.005E+00   0.000E+00  -5.027E-03
 485  8.99306001   0.768  -1.60378   3.61807   6.91106   2.00891   0.00000   1.005E+00   0.000E+00  -4.996E-03
 486  8.99750322   0.768  -1.60359   3.61807   6.91097   2.00863   0.00000   1.005E+00   0.000E+00  -4.966E-03
 487  9.00190142   0.768  -1.60339   3.61808   6.91089   2.00835   0.00000   1.005E+00   0.000E+00  -4.935E-03
 488  9.00625553   0.768  -1.60320   3.61808   6.91081   2.00807   0.00000   1.005E+00   0.000E+00  -4.905E-03
 489  9.01056642   0.768  -1.60301   3.61808   6.91073   2.00779   0.00000   1.005E+00   0.000E+00  -4.874E-03
 490  9.01483494   0.768  -1.60282   3.61808   6.91064   2.00750   0.00000   1.005E+00   0.000E+00  -4.843E-03
 491  9.01906191   0.768  -1.60262   3.61808   6.91056   2.00722   0.00000   1.005E+00   0.000E+00  -4.813E-03
 492  9.02324814   0.768  -1.60243   3.61808   6.91048   2.00694   0.00000   1.005E+00   0.000E+00  -4.782E-03
 493  9.02739440   0.768  -1.60225   3.61808   6.91040   2.00668   0.00000   1.005E+00   0.000E+00  -4.752E-03
 494  9.03150145   0.768  -1.60207   3.61808   6.91033   2.00641   0.00000   1.005E+00   0.000E+00  -4.723E-03
 495  9.03557002   0.768  -1.60189   3.61808   6.91025   2.00615   0.00000   1.005E+00   0.000E+00  -4.693E-03
 496  9.03960084   0.768  -1.60170   3.61808   6.91017   2.00588   0.00000   1.005E+00   0.000E+00  -4.663E-03
 497  9.04359458   0.768  -1.60152   3.61809   6.91009   2.00562   0.00000   1.004E+00   0.000E+00  -4.633E-03
 498  9.04755194   0.768  -1.60134   3.61809   6.91002   2.00536   0.00000   1.004E+00   0.000E+00  -4.603E-03
 499  9.05147356   0.768  -1.60116   3.61809   6.90994   2.00509   0.00000   1.004E+00   0.000E+00  -4.573E-03
 500  9.05536008   0.768  -1.60097   3.61809   6.90986   2.00483   0.00000   1.004E+00   0.000E+00  -4.543E-03
 501  9.05921213   0.768  -1.60079   3.61809   6.90979   2.00456   0.00000   1.004E+00   0.000E+00  -4.513E-03
 502  9.06303032   0.768  -1.60061   3.61809   6.90971   2.00430   0.00000   1.004E+00   0.000E+00  -4.483E-03
 503  9.06681522   0.768  -1.60044   3.61809   6.90963   2.00405   0.00000   1.004E+00   0.000E+00  -4.456E-03
 504  9.07056743   0.768  -1.60027   3.61809   6.90956   2.00380   0.00000   1.004E+00   0.000E+00  -4.428E-03
 505  9.07428750   0.768  -1.60010   3.61809   6.90949   2.00355   0.00000   1.004E+00   0.000E+00  -4.401E-03
 506  9.07797597   0.768  -1.59993   3.61809   6.90942   2.00330   0.00000   1.004E+00   0.000E+00  -4.374E-03
 507  9.08163338   0.768  -1.59976   3.61809   6.90934   2.00305   0.00000   1.004E+00   0.000E+00  -4.346E-03
 508  9.08526025   0.768  -1.59959   3.61810   6.90927   2.00281   0.00000   1.004E+00   0.000E+00  -4.319E-03
 509  9.08885708   0.768  -1.59942   3.61810   6.90920   2.00256   0.00000   1.004E+00   0.000E+00  -4.292E-03
 510  9.09242436   0.768  -1.59925   3.61810   6.90913   2.00231   0.00000   1.004E+00   0.000E+00  -4.265E-03
 511  9.09596258   0.768  -1.59908   3.61810   6.90905   2.00206   0.00000   1.004E+00   0.000E+00  -4.237E-03
 512  9.09947221   0.768  -1.59891   3.61810   6.90898   2.00181   0.00000   1.004E+00   0.000E+00  -4.210E-03
 513  9.10295370   0.768  -1.59874   3.61810   6.90891   2.00156   0.00000   1.004E+00   0.000E+00  -4.183E-03
 514  9.10640751   0.768  -1.59858   3.61810   6.90884   2.00133   0.00000   1.004E+00   0.000E+00  -4.156E-03
 515  9.10983406   0.768  -1.59842   3.61810   6.90877   2.00110   0.00000   1.004E+00   0.000E+00  -4.130E-03
 516  9.11323379   0.768  -1.59826   3.61810   6.90870   2.00087   0.00000   1.004E+00   0.000E+00  -4.103E-03
 517  9.11660712   0.768  -1.59810   3.61811   6.90864   2.00064   0.00000   1.004E+00   0.000E+00  -4.077E-03
 518  9.11995444   0.768  -1.59794   3.61811   6.90857   2.00041   0.00000   1.004E+00   0.000E+00  -4.050E-03
 519  9.12327616   0.768  -1.59778   3.61811   6.90850   2.00017   0.00000   1.004E+00   0.000E+00  -4.024E-03
 520  9.12657267   0.768  -1.59762   3.61811   6.90843   1.99994   0.00000   1.004E+00   0.000E+00  -3.997E-03
 521  9.12984435   0.768  -1.59746   3.61811   6.90837   1.99971   0.00000   1.004E+00   0.000E+00  -3.971E-03
 522  9.13309156   0.768  -1.59730   3.61812   6.90830   1.99948   0.00000   1.004E+00   0.000E+00  -3.944E-03
 523  9.13631467   0.768  -1.59714   3.61812   6.90823   1.99925   0.00000   1.004E+00   0.000E+00  -3.918E-03
 524  9.13951404   0.768  -1.59698   3.61812   6.90816   1.99902   0.00000   1.004E+00   0.000E+00  -3.891E-03
 525  9.14269001   0.768  -1.59682   3.61812   6.90810   1.99879   0.00000   1.004E+00   0.000E+00  -3.865E-03
 526  9.14584293   0.768  -1.59667   3.61812   6.90804   1.99857   0.00000   1.004E+00   0.000E+00  -3.842E-03
 527  9.14897312   0.768  -1.59652   3.61812   6.90797   1.99836   0.00000   1.004E+00   0.000E+00  -3.819E-03
 528  9.15208091   0.768  -1.59638   3.61812   6.90791   1.99814   0.00000   1.004E+00   0.000E+00  -3.796E-03
 529  9.15516661   0.768  -1.59623   3.61812   6.90785   1.99793   0.00000   1.004E+00   0.000E+00  -3.773E-03
 530  9.15823055   0.768  -1.59608   3.61812   6.90779   1.99771   0.00000   1.004E+00   0.000E+00  -3.750E-03
 531  9.16127303   0.768  -1.59593   3.61812   6.90772   1.99749   0.00000   1.004E+00   0.000E+00  -3.727E-03
 532  9.16429434   0.768  -1.59578   3.61813   6.90766   1.99728   0.00000   1.004E+00   0.000E+00  -3.703E-03
 533  9.16729477   0.768  -1.59563   3.61813   6.90760   1.99706   0.00000   1.004E+00   0.000E+00  -3.680E-03
 534  9.17027462   0.768  -1.59548   3.61813   6.90754   1.99685   0.00000   1.004E+00   0.000E+00  -3.657E-03
 535  9.17323416   0.768  -1.59534   3.61813   6.90748   1.99663   0.00000   1.004E+00   0.000E+00  -3.634E-03
 536  9.17617367   0.768  -1.59519   3.61813   6.90741   1.99642   0.00000   1.004E+00   0.000E+00  -3.611E-03
 537  9.17909342   0.768  -1.59504   3.61813   6.90735   1.99620   0.00000   1.004E+00   0.000E+00  -3.588E-03
 538  9.18199366   0.768  -1.59490   3.61813   6.90729   1.99600   0.00000   1.004E+00   0.000E+00  -3.566E-03
 539  9.18487467   0.768  -1.59476   3.61813   6.90723   1.99580   0.00000   1.004E+00   0.000E+00  -3.545E-03
 540  9.18773670   0.768  -1.59462   3.61813   6.90718   1.99560   0.00000   1.004E+00   0.000E+00  -3.524E-03
 541  9.19057998   0.767  -1.59448   3.61813   6.90712   1.99540   0.00000   1.004E+00   0.000E+00  -3.504E-03
 542  9.19340477   0.767  -1.59434   3.61813   6.90706   1.99520   0.00000   1.004E+00   0.000E+00  -3.483E-03
 543  9.19621131   0.767  -1.59421   3.61813   6.90701   1.99500   0.00000   1.004E+00   0.000E+00  -3.462E-03
 544  9.19899983   0.767  -1.59407   3.61813   6.90695   1.99480   0.00000   1.004E+00   0.000E+00  -3.441E-03
 545  9.20177056   0.767  -1.59393   3.61814   6.90689   1.99460   0.00000   1.003E+00   0.000E+00  -3.420E-03
 546  9.20452372   0.767  -1.59379   3.61814   6.90683   1.99440   0.00000   1.003E+00   0.000E+00  -3.400E-03
 547  9.20725954   0.767  -1.59365   3.61814   6.90678   1.99420   0.00000   1.003E+00   0.000E+00  -3.379E-03
 548  9.20997823   0.767  -1.59352   3.61814   6.90672   1.99400   0.00000   1.003E+00   0.000E+00  -3.358E-03
 549  9.21268001   0.767  -1.59338   3.61814   6.90666   1.99381   0.00000   1.003E+00   0.000E+00  -3.337E-03
 550  9.21536508   0.767  -1.59324   3.61814   6.90660   1.99361   0.00000   1.003E+00   0.000E+00  -3.316E-03
 551  9.21803366   0.767  -1.59310   3.61814   6.90655   1.99341   0.00000   1.003E+00   0.000E+00  -3.296E-03
 552  9.22068594   0.767  -1.59298   3.61814   6.90650   1.99323   0.00000   1.003E+00   0.000E+00  -3.277E-03
 553  9.22332212   0.767  -1.59285   3.61814   6.90644   1.99304   0.00000   1.003E+00   0.000E+00  -3.257E-03
 554  9.22594239   0.767  -1.59272   3.61814   6.90639   1.99286   0.00000   1.003E+00   0.000E+00  -3.238E-03
 555  9.22854695   0.767  -1.59259   3.61814   6.90634   1.99267   0.00000   1.003E+00   0.000E+00  -3.219E-03
 556  9.23113598   0.767  -1.59246   3.61814   6.90628   1.99249   0.00000   1.003E+00   0.000E+00  -3.199E-03
 557  9.23370967   0.767  -1.59234   3.61814   6.90623   1.99231   0.00000   1.003E+00   0.000E+00  -3.180E-03
 558  9.23626820   0.767  -1.59221   3.61814   6.90618   1.99212   0.00000   1.003E+00   0.000E+00  -3.161E-03
 559  9.23881174   0.767  -1.59208   3.61815   6.90612   1.99194   0.00000   1.003E+00   0.000E+00  -3.141E-03
 560  9.24134047   0.767  -1.59195   3.61815   6.90607   1.99175   0.00000   1.003E+00   0.000E+00  -3.122E-03
 561  9.24385457   0.767  -1.59183   3.61815   6.90602   1.99157   0.00000   1.003E+00   0.000E+00  -3.103E-03
 562  9.24635419   0.767  -1.59170   3.61815   6.90596   1.99139   0.00000   1.003E+00   0.000E+00  -3.084E-03
 563  9.24883951   0.767  -1.59157   3.61815   6.90591   1.99120   0.00000   1.003E+00   0.000E+00  -3.064E-03
 564  9.25131069   0.767  -1.59144   3.61815   6.90586   1.99102   0.00000   1.003E+00   0.000E+00  -3.045E-03
 565  9.25376788   0.767  -1.59132   3.61815   6.90581   1.99083   0.00000   1.003E+00   0.000E+00  -3.026E-03
 566  9.25621125   0.767  -1.59120   3.61815   6.90576   1.99066   0.00000   1.003E+00   0.000E+00  -3.008E-03
 567  9.25864096   0.767  -1.59108   3.61815   6.90571   1.99049   0.00000   1.003E+00   0.000E+00  -2.992E-03
 568  9.26105714   0.767  -1.59096   3.61815   6.90566   1.99032   0.00000   1.003E+00   0.000E+00  -2.975E-03
 569  9.26345996   0.767  -1.59085   3.61815   6.90561   1.99015   0.00000   1.003E+00   0.000E+00  -2.959E-03
 570  9.26584955   0.767  -1.59073   3.61816   6.90556   1.98999   0.00000   1.003E+00   0.000E+00  -2.942E-03
 571  9.26822607   0.767  -1.59061   3.61816   6.90551   1.98982   0.00000   1.003E+00   0.000E+00  -2.925E-03
 572  9.27058965   0.767  -1.59049   3.61816   6.90547   1.98965   0.00000   1.003E+00   0.000E+00  -2.909E-03
 573  9.27294045   0.767  -1.59038   3.61816   6.90542   1.98948   0.00000   1.003E+00   0.000E+00  -2.892E-03
 574  9.27527858   0.767  -1.59026   3.61816   6.90537   1.98931   0.00000   1.003E+00   0.000E+00  -2.876E-03
 575  9.27760419   0.767  -1.59014   3.61816   6.90532   1.98914   0.00000   1.003E+00   0.000E+00  -2.859E-03
 576  9.27991742   0.767  -1.59003   3.61816   6.90527   1.98897   0.00000   1.003E+00   0.000E+00  -2.843E-03
 577  9.28221839   0.767  -1.58991   3.61816   6.90522   1.98880   0.00000   1.003E+00   0.000E+00  -2.826E-03
 578  9.28450724   0.767  -1.58979   3.61817   6.90518   1.98864   0.00000   1.003E+00   0.000E+00  -2.810E-03
 579  9.28678408   0.767  -1.58967   3.61817   6.90513   1.98847   0.00000   1.003E+00   0.000E+00  -2.793E-03
 580  9.28904905   0.767  -1.58956   3.61817   6.90508   1.98830   0.00000   1.003E+00   0.000E+00  -2.777E-03
 581  9.29130227   0.767  -1.58944   3.61817   6.90503   1.98813   0.00000   1.003E+00   0.000E+00  -2.760E-03
 582  9.29354386   0.767  -1.58933   3.61817   6.90499   1.98797   0.00000   1.003E+00   0.000E+00  -2.745E-03
 583  9.29577394   0.767  -1.58923   3.61817   6.90494   1.98782   0.00000   1.003E+00   0.000E+00  -2.729E-03
 584  9.29799263   0.767  -1.58912   3.61817   6.90490   1.98767   0.00000   1.003E+00   0.000E+00  -2.714E-03
 585  9.30020004   0.767  -1.58901   3.61817   6.90485   1.98751   0.00000   1.003E+00   0.000E+00  -2.699E-03
 586  9.30239628   0.767  -1.58890   3.61817   6.90481   1.98736   0.00000   1.003E+00   0.000E+00  -2.684E-03
 587  9.30458148   0.767  -1.58880   3.61817   6.90477   1.98720   0.00000   1.003E+00   0.000E+00  -2.669E-03
 588  9.30675573   0.767  -1.58869   3.61817   6.90472   1.98705   0.00000   1.003E+00   0.000E+00  -2.653E-03
 589  9.30891916   0.767  -1.58858   3.61817   6.90468   1.98689   0.00000   1.003E+00   0.000E+00  -2.638E-03
 590  9.31107186   0.767  -1.58847   3.61818   6.90463   1.98674   0.00000   1.003E+00   0.000E+00  -2.623E-03
 591  9.31321394   0.767  -1.58837   3.61818   6.90459   1.98658   0.00000   1.003E+00   0.000E+00  -2.608E-03
 592  9.31534551   0.767  -1.58826   3.61818   6.90455   1.98643   0.00000   1.003E+00   0.000E+00  -2.592E-03
 593  9.31746667   0.767  -1.58815   3.61818   6.90450   1.98627   0.00000   1.003E+00   0.000E+00  -2.577E-03
 594  9.31957752   0.767  -1.58805   3.61818   6.90446   1.98612   0.00000   1.003E+00   0.000E+00  -2.562E-03
 595  9.32167816   0.767  -1.58794   3.61818   6.90441   1.98596   0.00000   1.003E+00   0.000E+00  -2.547E-03
 596  9.32376868   0.767  -1.58783   3.61818   6.90437   1.98581   0.00000   1.003E+00   0.000E+00  -2.531E-03
 597  9.32584919   0.767  -1.58772   3.61818   6.90433   1.98565   0.00000   1.003E+00   0.000E+00  -2.516E-03
 598  9.32791979   0.767  -1.58762   3.61818   6.90428   1.98550   0.00000   1.003E+00   0.000E+00  -2.501E-03
 599  9.32998055   0.767  -1.58752   3.61818   6.90424   1.98536   0.00000   1.003E+00   0.000E+00  -2.489E-03
 600  9.33203159   0.767  -1.58742   3.61818   6.90420   1.98521   0.00000   1.003E+00   0.000E+00  -2.477E-03
 601  9.33407298   0.767  -1.58732   3.61818   6.90416   1.98507   0.00000   1.003E+00   0.000E+00  -2.465E-03
 602  9.33610483   0.767  -1.58722   3.61818   6.90412   1.98492   0.00000   1.003E+00   0.000E+00  -2.454E-03
 603  9.33812721   0.767  -1.58713   3.61819   6.90407   1.98478   0.00000   1.003E+00   0.000E+00  -2.442E-03
 604  9.34014022   0.767  -1.58703   3.61819   6.90403   1.98463   0.00000   1.003E+00   0.000E+00  -2.430E-03
 605  9.34214394   0.767  -1.58693   3.61819   6.90399   1.98449   0.00000   1.003E+00   0.000E+00  -2.418E-03
 606  9.34413846   0.767  -1.58683   3.61819   6.90395   1.98435   0.00000   1.003E+00   0.000E+00  -2.406E-03
 607  9.34612386   0.767  -1.58673   3.61819   6.90391   1.98420   0.00000   1.003E+00   0.000E+00  -2.395E-03
 608  9.34810022   0.767  -1.58663   3.61819   6.90386   1.98406   0.00000   1.002E+00   0.000E+00  -2.383E-03
 609  9.35006763   0.767  -1.58654   3.61819   6.90382   1.98391   0.00000   1.002E+00   0.000E+00  -2.371E-03
 610  9.35202617   0.767  -1.58644   3.61819   6.90378   1.98377   0.00000   1.002E+00   0.000E+00  -2.359E-03
 611  9.35397592   0.767  -1.58634   3.61819   6.90374   1.98362   0.00000   1.002E+00   0.000E+00  -2.347E-03
 612  9.35591695   0.767  -1.58624   3.61819   6.90370   1.98348   0.00000   1.002E+00   0.000E+00  -2.336E-03
 613  9.35784935   0.767  -1.58614   3.61820   6.90366   1.98333   0.00000   1.002E+00   0.000E+00  -2.324E-03
 614  9.35977318   0.767  -1.58605   3.61820   6.90361   1.98319   0.00000   1.002E+00   0.000E+00  -2.312E-03
 615  9.36168854   0.767  -1.58595   3.61820   6.90357   1.98305   0.00000   1.002E+00   0.000E+00  -2.300E-03
 616  9.36359548   0.767  -1.58585   3.61820   6.90353   1.98290   0.00000   1.002E+00   0.000E+00  -2.288E-03
 617  9.36549408   0.767  -1.58575   3.61820   6.90349   1.98276   0.00000   1.002E+00   0.000E+00  -2.276E-03
 618  9.36738442   0.767  -1.58566   3.61820   6.90345   1.98263   0.00000   1.002E+00   0.000E+00  -2.264E-03
 619  9.36926657   0.767  -1.58558   3.61820   6.90342   1.98251   0.00000   1.002E+00   0.000E+00  -2.252E-03
 620  9.37114060   0.767  -1.58549   3.61820   6.90338   1.98238   0.00000   1.002E+00   0.000E+00  -2.240E-03
 621  9.37300657   0.767  -1.58540   3.61820   6.90335   1.98225   0.00000   1.002E+00   0.000E+00  -2.228E-03
 622  9.37486456   0.767  -1.58531   3.61821   6.90331   1.98212   0.00000   1.002E+00   0.000E+00  -2.216E-03
 623  9.37671464   0.766  -1.58522   3.61821   6.90328   1.98199   0.00000   1.002E+00   0.000E+00  -2.204E-03
 624  9.37855687   0.766  -1.58513   3.61821   6.90324   1.98187   0.00000   1.002E+00   0.000E+00  -2.191E-03
 625  9.38039131   0.766  -1.58504   3.61821   6.90321   1.98174   0.00000   1.002E+00   0.000E+00  -2.179E-03
 626  9.38221805   0.766  -1.58495   3.61821   6.90317   1.98161   0.00000   1.002E+00   0.000E+00  -2.167E-03
 627  9.38403712   0.766  -1.58486   3.61821   6.90314   1.98148   0.00000   1.002E+00   0.000E+00  -2.155E-03
 628  9.38584862   0.766  -1.58477   3.61821   6.90310   1.98135   0.00000   1.002E+00   0.000E+00  -2.143E-03
 629  9.38765258   0.766  -1.58469   3.61821   6.90306   1.98123   0.00000   1.002E+00   0.000E+00  -2.131E-03
 630  9.38944909   0.766  -1.58460   3.61821   6.90303   1.98110   0.00000   1.002E+00   0.000E+00  -2.119E-03
 631  9.39123819   0.766  -1.58451   3.61821   6.90299   1.98097   0.00000   1.002E+00   0.000E+00  -2.106E-03
 632  9.39301996   0.766  -1.58442   3.61822   6.90296   1.98084   0.00000   1.002E+00   0.000E+00  -2.094E-03
 633  9.39479444   0.766  -1.58433   3.61822   6.90292   1.98071   0.00000   1.002E+00   0.000E+00  -2.082E-03
 634  9.39656171   0.766  -1.58424   3.61822   6.90289   1.98059   0.00000   1.002E+00   0.000E+00  -2.070E-03
 635  9.39832181   0.766  -1.58415   3.61822   6.90285   1.98046   0.00000   1.002E+00   0.000E+00  -2.058E-03
 636  9.40007480   0.766  -1.58406   3.61822   6.90282   1.98033   0.00000   1.002E+00   0.000E+00  -2.046E-03
 637  9.40182075   0.766  -1.58398   3.61822   6.90278   1.98021   0.00000   1.002E+00   0.000E+00  -2.034E-03
 638  9.40355971   0.766  -1.58390   3.61822   6.90275   1.98009   0.00000   1.002E+00   0.000E+00  -2.024E-03
 639  9.40529173   0.766  -1.58382   3.61822   6.90272   1.97998   0.00000   1.002E+00   0.000E+00  -2.013E-03
 640  9.40701687   0.766  -1.58374   3.61822   6.90269   1.97986   0.00000   1.002E+00   0.000E+00  -2.002E-03
 641  9.40873519   0.766  -1.58366   3.61822   6.90265   1.97975   0.00000   1.002E+00   0.000E+00  -1.992E-03
 642  9.41044674   0.766  -1.58358   3.61822   6.90262   1.97963   0.00000   1.002E+00   0.000E+00  -1.981E-03
 643  9.41215156   0.766  -1.58349   3.61822   6.90259   1.97951   0.00000   1.002E+00   0.000E+00  -1.971E-03
 644  9.41384972   0.766  -1.58341   3.61822   6.90256   1.97940   0.00000   1.002E+00   0.000E+00  -1.960E-03
 645  9.41554127   0.766  -1.58333   3.61822   6.90252   1.97928   0.00000   1.002E+00   0.000E+00  -1.949E-03
 646  9.41722625   0.766  -1.58325   3.61822   6.90249   1.97917   0.00000   1.002E+00   0.000E+00  -1.939E-03
 647  9.41890472   0.766  -1.58317   3.61823   6.90246   1.97905   0.00000   1.002E+00   0.000E+00  -1.928E-03
 648  9.42057673   0.766  -1.58309   3.61823   6.90243   1.97893   0.00000   1.002E+00   0.000E+00  -1.917E-03
 649  9.42224233   0.766  -1.58301   3.61823   6.90239   1.97882   0.00000   1.002E+00   0.000E+00  -1.907E-03
 650  9.42390156   0.766  -1.58293   3.61823   6.90236   1.97870   0.00000   1.002E+00   0.000E+00  -1.896E-03
 651  9.42555448   0.766  -1.58285   3.61823   6.90233   1.97859   0.00000   1.002E+00   0.000E+00  -1.886E-03
 652  9.42720113   0.766  -1.58277   3.61823   6.90230   1.97847   0.00000   1.002E+00   0.000E+00  -1.875E-03
 653  9.42884156   0.766  -1.58269   3.61823   6.90226   1.97835   0.00000   1.002E+00   0.000E+00  -1.864E-03
 654  9.43047582   0.766  -1.58261   3.61823   6.90223   1.97824   0.00000   1.002E+00   0.000E+00  -1.854E-03
 655  9.43210395   0.766  -1.58253   3.61823   6.90220   1.97812   0.00000   1.002E+00   0.000E+00  -1.843E-03
 656  9.43372600   0.766  -1.58245   3.61823   6.90217   1.97801   0.00000   1.002E+00   0.000E+00  -1.832E-03
 657  9.43534202   0.766  -1.58237   3.61823   6.90214   1.97790   0.00000   1.002E+00   0.000E+00  -1.823E-03
 658  9.43695204   0.766  -1.58230   3.61823   6.90211   1.97779   0.00000   1.002E+00   0.000E+00  -1.815E-03
 659  9.43855612   0.766  -1.58223   3.61823   6.90208   1.97769   0.00000   1.002E+00   0.000E+00  -1.806E-03
 660  9.44015429   0.766  -1.58215   3.61823   6.90205   1.97758   0.00000   1.002E+00   0.000E+00  -1.798E-03
 661  9.44174661   0.766  -1.58208   3.61823   6.90202   1.97748   0.00000   1.002E+00   0.000E+00  -1.789E-03
 662  9.44333311   0.766  -1.58201   3.61824   6.90199   1.97737   0.00000   1.002E+00   0.000E+00  -1.780E-03
 663  9.44491383   0.766  -1.58193   3.61824   6.90196   1.97726   0.00000   1.002E+00   0.000E+00  -1.772E-03
 664  9.44648882   0.766  -1.58186   3.61824   6.90194   1.97716   0.00000   1.002E+00   0.000E+00  -1.763E-03
 665  9.44805812   0.766  -1.58179   3.61824   6.90191   1.97705   0.00000   1.002E+00   0.000E+00  -1.755E-03
 666  9.44962177   0.766  -1.58171   3.61824   6.90188   1.97695   0.00000   1.002E+00   0.000E+00  -1.746E-03
 667  9.45117981   0.766  -1.58164   3.61824   6.90185   1.97684   0.00000   1.002E+00   0.000E+00  -1.737E-03
 668  9.45273228   0.766  -1.58157   3.61824   6.90182   1.97674   0.00000   1.002E+00   0.000E+00  -1.729E-03
 669  9.45427922   0.766  -1.58149   3.61824   6.90179   1.97663   0.00000   1.002E+00   0.000E+00  -1.720E-03
 670  9.45582067   0.766  -1.58142   3.61824   6.90176   1.97652   0.00000   1.002E+00   0.000E+00  -1.712E-03
 671  9.45735667   0.766  -1.58135   3.61824   6.90173   1.97642   0.00000   1.002E+00   0.000E+00  -1.703E-03
 672  9.45888725   0.766  -1.58127   3.61825   6.90171   1.97631   0.00000   1.002E+00   0.000E+00  -1.694E-03
 673  9.46041246   0.766  -1.58120   3.61825   6.90168   1.97621   0.00000   1.002E+00   0.000E+00  -1.686E-03
 674  9.46193233   0.766  -1.58113   3.61825   6.90165   1.97610   0.00000   1.002E+00   0.000E+00  -1.677E-03
 675  9.46344691   0.766  -1.58105   3.61825   6.90162   1.97600   0.00000   1.002E+00   0.000E+00  -1.669E-03
 676  9.46495621   0.766  -1.58098   3.61825   6.90159   1.97589   0.00000   1.002E+00   0.000E+00  -1.660E-03
 677  9.46646029   0.766  -1.58091   3.61825   6.90156   1.97579   0.00000   1.002E+00   0.000E+00  -1.652E-03
 678  9.46795918   0.766  -1.58085   3.61825   6.90154   1.97570   0.00000   1.002E+00   0.000E+00  -1.644E-03
 679  9.46945292   0.766  -1.58078   3.61825   6.90151   1.97560   0.00000   1.002E+00   0.000E+00  -1.636E-03
 680  9.47094153   0.766  -1.58071   3.61825   6.90149   1.97551   0.00000   1.002E+00   0.000E+00  -1.628E-03
 681  9.47242506   0.766  -1.58065   3.61825   6.90146   1.97541   0.00000   1.002E+00   0.000E+00  -1.619E-03
 682  9.47390354   0.766  -1.58058   3.61825   6.90144   1.97532   0.00000   1.002E+00   0.000E+00  -1.611E-03
 683  9.47537700   0.766  -1.58051   3.61825   6.90141   1.97522   0.00000   1.002E+00   0.000E+00  -1.603E-03
 684  9.47684548   0.766  -1.58045   3.61825   6.90138   1.97512   0.00000   1.002E+00   0.000E+00  -1.595E-03
 685  9.47830902   0.766  -1.58038   3.61825   6.90136   1.97503   0.00000   1.002E+00   0.000E+00  -1.587E-03
 686  9.47976763   0.766  -1.58031   3.61826   6.90133   1.97493   0.00000   1.001E+00   0.000E+00  -1.579E-03
 687  9.48122137   0.766  -1.58024   3.61826   6.90131   1.97484   0.00000   1.001E+00   0.000E+00  -1.571E-03
 688  9.48267025   0.766  -1.58018   3.61826   6.90128   1.97474   0.00000   1.001E+00   0.000E+00  -1.563E-03
 689  9.48411432   0.766  -1.58011   3.61826   6.90125   1.97465   0.00000   1.001E+00   0.000E+00  -1.555E-03
 690  9.48555360   0.766  -1.58004   3.61826   6.90123   1.97455   0.00000   1.001E+00   0.000E+00  -1.547E-03
 691  9.48698812   0.766  -1.57998   3.61826   6.90120   1.97445   0.00000   1.001E+00   0.000E+00  -1.539E-03
 692  9.48841793   0.766  -1.57991   3.61826   6.90118   1.97436   0.00000   1.001E+00   0.000E+00  -1.530E-03
 693  9.48984304   0.766  -1.57984   3.61826   6.90115   1.97426   0.00000   1.001E+00   0.000E+00  -1.522E-03
 694  9.49126349   0.766  -1.57978   3.61826   6.90113   1.97417   0.00000   1.001E+00   0.000E+00  -1.514E-03
 695  9.49267931   0.766  -1.57971   3.61826   6.90110   1.97407   0.00000   1.001E+00   0.000E+00  -1.506E-03
 696  9.49409053   0.766  -1.57965   3.61826   6.90107   1.97398   0.00000   1.001E+00   0.000E+00  -1.498E-03
 697  9.49549718   0.766  -1.57958   3.61826   6.90105   1.97389   0.00000   1.001E+00   0.000E+00  -1.491E-03
 698  9.49689928   0.766  -1.57952   3.61826   6.90103   1.97380   0.00000   1.001E+00   0.000E+00  -1.484E-03
 699  9.49829688   0.766  -1.57946   3.61826   6.90100   1.97372   0.00000   1.001E+00   0.000E+00  -1.477E-03
 700  9.49968999   0.766  -1.57940   3.61826   6.90098   1.97363   0.00000   1.001E+00   0.000E+00  -1.470E-03
 701  9.50107865   0.766  -1.57934   3.61827   6.90096   1.97354   0.00000   1.001E+00   0.000E+00  -1.463E-03
 702  9.50246288   0.766  -1.57928   3.61827   6.90093   1.97346   0.00000   1.001E+00   0.000E+00  -1.456E-03
 703  9.50384271   0.766  -1.57922   3.61827   6.90091   1.97337   0.00000   1.001E+00   0.000E+00  -1.449E-03
 704  9.50521818   0.766  -1.57916   3.61827   6.90089   1.97328   0.00000   1.001E+00   0.000E+00  -1.442E-03
 705  9.50658930   0.766  -1.57909   3.61827   6.90086   1.97320   0.00000   1.001E+00   0.000E+00  -1.435E-03
 706  9.50795610   0.766  -1.57903   3.61827   6.90084   1.97311   0.00000   1.001E+00   0.000E+00  -1.427E-03
 707  9.50931862   0.766  -1.57897   3.61827   6.90082   1.97302   0.00000   1.001E+00   0.000E+00  -1.420E-03
 708  9.51067688   0.766  -1.57891   3.61827   6.90080   1.97293   0.00000   1.001E+00   0.000E+00  -1.413E-03
 709  9.51203090   0.766  -1.57885   3.61827   6.90077   1.97285   0.00000   1.001E+00   0.000E+00  -1.406E-03
 710  9.51338071   0.766  -1.57879   3.61827   6.90075   1.97276   0.00000   1.001E+00   0.000E+00  -1.399E-03
 711  9.51472634   0.766  -1.57873   3.61828   6.90073   1.97267   0.00000   1.001E+00   0.000E+00  -1.392E-03
 712  9.51606782   0.766  -1.57867   3.61828   6.90070   1.97259   0.00000   1.001E+00   0.000E+00  -1.385E-03
 713  9.51740516   0.766  -1.57860   3.61828   6.90068   1.97250   0.00000   1.001E+00   0.000E+00  -1.378E-03
 714  9.51873840   0.766  -1.57854   3.61828   6.90066   1.97241   0.00000   1.001E+00   0.000E+00  -1.371E-03
 715  9.52006755   0.765  -1.57848   3.61828   6.90063   1.97233   0.00000   1.001E+00   0.000E+00  -1.364E-03
 716  9.52139266   0.765  -1.57842   3.61828   6.90061   1.97224   0.00000   1.001E+00   0.000E+00  -1.357E-03
 717  9.52271373   0.765  -1.57837   3.61828   6.90059   1.97216   0.00000   1.001E+00   0.000E+00  -1.351E-03
 718  9.52403079   0.765  -1.57831   3.61828   6.90057   1.97208   0.00000   1.001E+00   0.000E+00  -1.345E-03
 719  9.52534388   0.765  -1.57825   3.61828   6.90055   1.97200   0.00000   1.001E+00   0.000E+00  -1.339E-03
 720  9.52665300   0.765  -1.57820   3.61828   6.90052   1.97192   0.00000   1.001E+00   0.000E+00  -1.333E-03
 721  9.52795819   0.765  -1.57814   3.61828   6.90050   1.97184   0.00000   1.001E+00   0.000E+00  -1.327E-03
 722  9.52925947   0.765  -1.57808   3.61828   6.90048   1.97176   0.00000   1.001E+00   0.000E+00  -1.321E-03
 723  9.53055686   0.765  -1.57803   3.61828   6.90046   1.97168   0.00000   1.001E+00   0.000E+00  -1.315E-03
 724  9.53185039   0.765  -1.57797   3.61828   6.90044   1.97160   0.00000   1.001E+00   0.000E+00  -1.308E-03
 725  9.53314008   0.765  -1.57791   3.61828   6.90042   1.97152   0.00000   1.001E+00   0.000E+00  -1.302E-03
 726  9.53442595   0.765  -1.57786   3.61829   6.90040   1.97144   0.00000   1.001E+00   0.000E+00  -1.296E-03
 727  9.53570802   0.765  -1.57780   3.61829   6.90038   1.97136   0.00000   1.001E+00   0.000E+00  -1.290E-03
 728  9.53698632   0.765  -1.57774   3.61829   6.90035   1.97128   0.00000   1.001E+00   0.000E+00  -1.284E-03
 729  9.53826086   0.765  -1.57769   3.61829   6.90033   1.97120   0.00000   1.001E+00   0.000E+00  -1.278E-03
 730  9.53953168   0.765  -1.57763   3.61829   6.90031   1.97112   0.00000   1.001E+00   0.000E+00  -1.272E-03
 731  9.54079879   0.765  -1.57757   3.61829   6.90029   1.97104   0.00000   1.001E+00   0.000E+00  -1.266E-03
 732  9.54206221   0.765  -1.57752   3.61829   6.90027   1.97096   0.00000   1.001E+00   0.000E+00  -1.260E-03
 733  9.54332197   0.765  -1.57746   3.61829   6.90025   1.97088   0.00000   1.001E+00   0.000E+00  -1.254E-03
 734  9.54457809   0.765  -1.57740   3.61829   6.90023   1.97080   0.00000   1.001E+00   0.000E+00  -1.248E-03
 735  9.54583058   0.765  -1.57735   3.61829   6.90021   1.97072   0.00000   1.001E+00   0.000E+00  -1.242E-03
 736  9.54707947   0.765  -1.57729   3.61829   6.90019   1.97065   0.00000   1.001E+00   0.000E+00  -1.236E-03
 737  9.54832478   0.765  -1.57724   3.61829   6.90017   1.97057   0.00000   1.001E+00   0.000E+00  -1.230E-03
 738  9.54956653   0.765  -1.57719   3.61829   6.90015   1.97050   0.00000   1.001E+00   0.000E+00  -1.225E-03
 739  9.55080474   0.765  -1.57714   3.61829   6.90013   1.97043   0.00000   1.001E+00   0.000E+00  -1.219E-03
 740  9.55203943   0.765  -1.57709   3.61829   6.90011   1.97036   0.00000   1.001E+00   0.000E+00  -1.214E-03
 741  9.55327061   0.765  -1.57703   3.61830   6.90009   1.97028   0.00000   1.001E+00   0.000E+00  -1.208E-03
 742  9.55449832   0.765  -1.57698   3.61830   6.90007   1.97021   0.00000   1.001E+00   0.000E+00  -1.203E-03
 743  9.55572257   0.765  -1.57693   3.61830   6.90005   1.97014   0.00000   1.001E+00   0.000E+00  -1.197E-03
 744  9.55694337   0.765  -1.57688   3.61830   6.90003   1.97006   0.00000   1.001E+00   0.000E+00  -1.191E-03
 745  9.55816076   0.765  -1.57683   3.61830   6.90001   1.96999   0.00000   1.001E+00   0.000E+00  -1.186E-03
 746  9.55937474   0.765  -1.57678   3.61830   6.89999   1.96992   0.00000   1.001E+00   0.000E+00  -1.180E-03
 747  9.56058534   0.765  -1.57673   3.61830   6.89997   1.96985   0.00000   1.001E+00   0.000E+00  -1.175E-03
 748  9.56179257   0.765  -1.57667   3.61830   6.89996   1.96977   0.00000   1.001E+00   0.000E+00  -1.169E-03
 749  9.56299645   0.765  -1.57662   3.61830   6.89994   1.96970   0.00000   1.001E+00   0.000E+00  -1.164E-03
 750  9.56419701   0.765  -1.57657   3.61830   6.89992   1.96963   0.00000   1.001E+00   0.000E+00  -1.158E-03
 751  9.56539426   0.765  -1.57652   3.61831   6.89990   1.96955   0.00000   1.001E+00   0.000E+00  -1.153E-03
 752  9.56658821   0.765  -1.57647   3.61831   6.89988   1.96948   0.00000   1.001E+00   0.000E+00  -1.147E-03
 753  9.56777889   0.765  -1.57642   3.61831   6.89986   1.96941   0.00000   1.001E+00   0.000E+00  -1.141E-03
 754  9.56896632   0.765  -1.57636   3.61831   6.89984   1.96934   0.00000   1.001E+00   0.000E+00  -1.136E-03
 755  9.57015051   0.765  -1.57631   3.61831   6.89982   1.96926   0.00000   1.001E+00   0.000E+00  -1.130E-03
 756  9.57133148   0.765  -1.57626   3.61831   6.89980   1.96920   0.00000   1.001E+00   0.000E+00  -1.126E-03
 757  9.57250924   0.765  -1.57622   3.61831   6.89979   1.96913   0.00000   1.001E+00   0.000E+00  -1.121E-03
 758  9.57368383   0.765  -1.57617   3.61831   6.89977   1.96906   0.00000   1.001E+00   0.000E+00  -1.117E-03
 759  9.57485524   0.765  -1.57612   3.61831   6.89975   1.96900   0.00000   1.001E+00   0.000E+00  -1.112E-03
 760  9.57602350   0.765  -1.57607   3.61831   6.89973   1.96893   0.00000   1.001E+00   0.000E+00  -1.107E-03
 761  9.57718863   0.765  -1.57603   3.61831   6.89972   1.96886   0.00000   1.001E+00   0.000E+00  -1.103E-03
 762  9.57835064   0.765  -1.57598   3.61831   6.89970   1.96880   0.00000   1.001E+00   0.000E+00  -1.098E-03
 763  9.57950955   0.765  -1.57593   3.61831   6.89968   1.96873   0.00000   1.001E+00   0.000E+00  -1.094E-03
 764  9.58066537   0.765  -1.57588   3.61831   6.89967   1.96866   0.00000   1.001E+00   0.000E+00  -1.089E-03
 765  9.58181813   0.765  -1.57584   3.61832   6.89965   1.96859   0.00000   1.001E+00   0.000E+00  -1.085E-03
 766  9.58296783   0.765  -1.57579   3.61832   6.89963   1.96853   0.00000   1.001E+00   0.000E+00  -1.080E-03
 767  9.58411450   0.765  -1.57574   3.61832   6.89961   1.96846   0.00000   1.001E+00   0.000E+00  -1.076E-03
 768  9.58525815   0.765  -1.57569   3.61832   6.89960   1.96839   0.00000   1.001E+00   0.000E+00  -1.071E-03
 769  9.58639880   0.765  -1.57565   3.61832   6.89958   1.96833   0.00000   1.001E+00   0.000E+00  -1.066E-03
 770  9.58753646   0.765  -1.57560   3.61832   6.89956   1.96826   0.00000   1.001E+00   0.000E+00  -1.062E-03
 771  9.58867114   0.765  -1.57555   3.61832   6.89955   1.96819   0.00000   1.001E+00   0.000E+00  -1.057E-03
 772  9.58980287   0.765  -1.57550   3.61832   6.89953   1.96813   0.00000   1.001E+00   0.000E+00  -1.053E-03
 773  9.59093166   0.765  -1.57546   3.61832   6.89951   1.96806   0.00000   1.001E+00   0.000E+00  -1.048E-03
 774  9.59205752   0.765  -1.57541   3.61832   6.89949   1.96799   0.00000   1.001E+00   0.000E+00  -1.044E-03
 775  9.59318047   0.765  -1.57536   3.61832   6.89948   1.96793   0.00000   1.001E+00   0.000E+00  -1.039E-03
 776  9.59430053   0.765  -1.57532   3.61832   6.89946   1.96787   0.00000   1.001E+00   0.000E+00  -1.035E-03
 777  9.59541770   0.765  -1.57527   3.61832   6.89945   1.96780   0.00000   1.001E+00   0.000E+00  -1.031E-03
 778  9.59653201   0.765  -1.57523   3.61832   6.89943   1.96774   0.00000   1.001E+00   0.000E+00  -1.026E-03
 779  9.59764346   0.765  -1.57518   3.61832   6.89941   1.96768   0.00000   1.001E+00   0.000E+00  -1.022E-03
 780  9.59875208   0.765  -1.57514   3.61833   6.89940   1.96762   0.00000   1.001E+00   0.000E+00  -1.018E-03
 781  9.59985787   0.765  -1.57509   3.61833   6.89938   1.96756   0.00000   1.001E+00   0.000E+00  -1.014E-03
 782  9.60096086   0.765  -1.57505   3.61833   6.89937   1.96750   0.00000   1.001E+00   0.000E+00  -1.009E-03
 783  9.60206105   0.765  -1.57501   3.61833   6.89935   1.96743   0.00000   1.001E+00   0.000E+00  -1.005E-03
 784  9.60315846   0.765  -1.57496   3.61833   6.89934   1.96737   0.00000   1.001E+00   0.000E+00  -1.001E-03
 785  9.60425311   0.765  -1.57492   3.61833   6.89932   1.96731   0.00000   1.001E+00   0.000E+00  -9.967E-04
 786  9.60534500   0.765  -1.57487   3.61833   6.89930   1.96725   0.00000   1.001E+00   0.000E+00  -9.924E-04
 787  9.60643416   0.765  -1.57483   3.61833   6.89929   1.96719   0.00000   1.001E+00   0.000E+00  -9.882E-04
 788  9.60752059   0.765  -1.57478   3.61833   6.89927   1.96713   0.00000   1.001E+00   0.000E+00  -9.839E-04
 789  9.60860431   0.765  -1.57474   3.61833   6.89926   1.96706   0.00000   1.001E+00   0.000E+00  -9.797E-04
 790  9.60968533   0.765  -1.57469   3.61834   6.89924   1.96700   0.00000   1.001E+00   0.000E+00  -9.754E-04
 791  9.61076367   0.765  -1.57465   3.61834   6.89923   1.96694   0.00000   1.001E+00   0.000E+00  -9.712E-04
 792  9.61183934   0.765  -1.57460   3.61834   6.89921   1.96688   0.00000   1.001E+00   0.000E+00  -9.669E-04
 793  9.61291235   0.765  -1.57456   3.61834   6.89919   1.96682   0.00000   1.001E+00   0.000E+00  -9.627E-04
 794  9.61398271   0.765  -1.57452   3.61834   6.89918   1.96676   0.00000   1.001E+00   0.000E+00  -9.584E-04
 795  9.61505045   0.765  -1.57447   3.61834   6.89916   1.96670   0.00000   1.001E+00   0.000E+00  -9.543E-04
 796  9.61611556   0.765  -1.57443   3.61834   6.89915   1.96664   0.00000   1.001E+00   0.000E+00  -9.505E-04
 797  9.61717807   0.765  -1.57439   3.61834   6.89914   1.96658   0.00000   1.001E+00   0.000E+00  -9.466E-04
 798  9.61823799   0.765  -1.57435   3.61834   6.89912   1.96652   0.00000   1.001E+00   0.000E+00  -9.428E-04
 799  9.61929532   0.765  -1.57431   3.61834   6.89911   1.96647   0.00000   1.001E+00   0.000E+00  -9.390E-04
 800  9.62035009   0.765  -1.57427   3.61834   6.89909   1.96641   0.00000   1.001E+00   0.000E+00  -9.351E-04
 801  9.62140230   0.765  -1.57423   3.61834   6.89908   1.96635   0.00000   1.001E+00   0.000E+00  -9.313E-04
 802  9.62245197   0.765  -1.57419   3.61834   6.89906   1.96630   0.00000   1.001E+00   0.000E+00  -9.274E-04
 803  9.62349911   0.765  -1.57414   3.61834   6.89905   1.96624   0.00000   1.001E+00   0.000E+00  -9.236E-04
 804  9.62454373   0.765  -1.57410   3.61834   6.89904   1.96618   0.00000   1.001E+00   0.000E+00  -9.197E-04
 805  9.62558584   0.765  -1.57406   3.61835   6.89902   1.96612   0.00000   1.001E+00   0.000E+00  -9.159E-04
 806  9.62662546   0.765  -1.57402   3.61835   6.89901   1.96607   0.00000   1.001E+00   0.000E+00  -9.120E-04
 807  9.62766259   0.765  -1.57398   3.61835   6.89899   1.96601   0.00000   1.001E+00   0.000E+00  -9.082E-04
 808  9.62869726   0.765  -1.57394   3.61835   6.89898   1.96595   0.00000   1.001E+00   0.000E+00  -9.043E-04
 809  9.62972946   0.765  -1.57390   3.61835   6.89897   1.96589   0.00000   1.001E+00   0.000E+00  -9.005E-04
 810  9.63075922   0.765  -1.57386   3.61835   6.89895   1.96584   0.00000   1.001E+00   0.000E+00  -8.967E-04
 811  9.63178654   0.765  -1.57382   3.61835   6.89894   1.96578   0.00000   1.001E+00   0.000E+00  -8.928E-04
 812  9.63281144   0.765  -1.57378   3.61835   6.89892   1.96572   0.00000   1.001E+00   0.000E+00  -8.890E-04
 813  9.63383393   0.765  -1.57373   3.61835   6.89891   1.96567   0.00000   1.001E+00   0.000E+00  -8.851E-04
 814  9.63485401   0.765  -1.57369   3.61835   6.89889   1.96561   0.00000   1.001E+00   0.000E+00  -8.813E-04
 815  9.63587170   0.765  -1.57365   3.61835   6.89888   1.96555   0.00000   1.001E+00   0.000E+00  -8.777E-04
 816  9.63688702   0.765  -1.57362   3.61835   6.89887   1.96550   0.00000   1.001E+00   0.000E+00  -8.742E-04
 817  9.63789996   0.764  -1.57358   3.61835   6.89885   1.96545   0.00000   1.001E+00   0.000E+00  -8.707E-04
 818  9.63891055   0.764  -1.57354   3.61835   6.89884   1.96540   0.00000   1.001E+00   0.000E+00  -8.672E-04
 819  9.63991879   0.764  -1.57350   3.61835   6.89883   1.96534   0.00000   1.001E+00   0.000E+00  -8.637E-04
 820  9.64092470   0.764  -1.57346   3.61835   6.89882   1.96529   0.00000   1.001E+00   0.000E+00  -8.602E-04
 821  9.64192828   0.764  -1.57343   3.61835   6.89880   1.96524   0.00000   1.001E+00   0.000E+00  -8.567E-04
 822  9.64292955   0.764  -1.57339   3.61835   6.89879   1.96519   0.00000   1.001E+00   0.000E+00  -8.532E-04
 823  9.64392851   0.764  -1.57335   3.61835   6.89878   1.96513   0.00000   1.001E+00   0.000E+00  -8.497E-04
 824  9.64492519   0.764  -1.57331   3.61835   6.89876   1.96508   0.00000   1.001E+00   0.000E+00  -8.462E-04
 825  9.64591958   0.764  -1.57328   3.61836   6.89875   1.96503   0.00000   1.001E+00   0.000E+00  -8.427E-04
 826  9.64691170   0.764  -1.57324   3.61836   6.89874   1.96498   0.00000   1.001E+00   0.000E+00  -8.393E-04
 827  9.64790156   0.764  -1.57320   3.61836   6.89872   1.96492   0.00000   1.001E+00   0.000E+00  -8.358E-04
 828  9.64888916   0.764  -1.57316   3.61836   6.89871   1.96487   0.00000   1.001E+00   0.000E+00  -8.323E-04
 829  9.64987453   0.764  -1.57312   3.61836   6.89870   1.96482   0.00000   1.001E+00   0.000E+00  -8.288E-04
 830  9.65085766   0.764  -1.57309   3.61836   6.89868   1.96477   0.00000   1.001E+00   0.000E+00  -8.253E-04
 831  9.65183858   0.764  -1.57305   3.61836   6.89867   1.96471   0.00000   1.001E+00   0.000E+00  -8.218E-04
 832  9.65281728   0.764  -1.57301   3.61836   6.89866   1.96466   0.00000   1.001E+00   0.000E+00  -8.183E-04
 833  9.65379379   0.764  -1.57297   3.61836   6.89864   1.96461   0.00000   1.001E+00   0.000E+00  -8.148E-04
 834  9.65476810   0.764  -1.57293   3.61836   6.89863   1.96455   0.00000   1.001E+00   0.000E+00  -8.113E-04
 835  9.65574023   0.764  -1.57290   3.61836   6.89862   1.96451   0.00000   1.001E+00   0.000E+00  -8.082E-04
 836  9.65671019   0.764  -1.57286   3.61836   6.89861   1.96446   0.00000   1.001E+00   0.000E+00  -8.051E-04
 837  9.65767799   0.764  -1.57283   3.61836   6.89860   1.96441   0.00000   1.001E+00   0.000E+00  -8.020E-04
 838  9.65864364   0.764  -1.57279   3.61836   6.89858   1.96436   0.00000   1.001E+00   0.000E+00  -7.989E-04
 839  9.65960715   0.764  -1.57276   3.61836   6.89857   1.96431   0.00000   1.001E+00   0.000E+00  -7.958E-04
 840  9.66056852   0.764  -1.57272   3.61837   6.89856   1.96426   0.00000   1.001E+00   0.000E+00  -7.928E-04
 841  9.66152777   0.764  -1.57269   3.61837   6.89855   1.96421   0.00000   1.001E+00   0.000E+00  -7.897E-04
 842  9.66248490   0.764  -1.57265   3.61837   6.89854   1.96417   0.00000   1.001E+00   0.000E+00  -7.866E-04
 843  9.66343993   0.764  -1.57261   3.61837   6.89853   1.96412   0.00000   1.001E+00   0.000E+00  -7.835E-04
 844  9.66439287   0.764  -1.57258   3.61837   6.89851   1.96407   0.00000   1.001E+00   0.000E+00  -7.804E-04
 845  9.66534372   0.764  -1.57254   3.61837   6.89850   1.96402   0.00000   1.001E+00   0.000E+00  -7.773E-04
 846  9.66629249   0.764  -1.57251   3.61837   6.89849   1.96397   0.00000   1.001E+00   0.000E+00  -7.742E-04
 847  9.66723919   0.764  -1.57247   3.61837   6.89848   1.96392   0.00000   1.001E+00   0.000E+00  -7.712E-04
 848  9.66818383   0.764  -1.57244   3.61837   6.89847   1.96387   0.00000   1.001E+00   0.000E+00  -7.681E-04
 849  9.66912643   0.764  -1.57240   3.61838   6.89846   1.96383   0.00000   1.001E+00   0.000E+00  -7.650E-04
 850  9.67006698   0.764  -1.57237   3.61838   6.89844   1.96378   0.00000   1.001E+00   0.000E+00  -7.619E-04
 851  9.67100550   0.764  -1.57233   3.61838   6.89843   1.96373   0.00000   1.001E+00   0.000E+00  -7.588E-04
 852  9.67194199   0.764  -1.57230   3.61838   6.89842   1.96368   0.00000   1.001E+00   0.000E+00  -7.557E-04
 853  9.67287648   0.764  -1.57226   3.61838   6.89841   1.96363   0.00000   1.001E+00   0.000E+00  -7.526E-04
 854  9.67380895   0.764  -1.57223   3.61838   6.89840   1.96358   0.00000   1.001E+00   0.000E+00  -7.496E-04
 855  9.67473943   0.764  -1.57219   3.61838   6.89839   1.96354   0.00000   1.001E+00   0.000E+00  -7.468E-04
 856  9.67566791   0.764  -1.57216   3.61838   6.89838   1.96349   0.00000   1.001E+00   0.000E+00  -7.439E-04
 857  9.67659442   0.764  -1.57213   3.61838   6.89837   1.96345   0.00000   1.001E+00   0.000E+00  -7.411E-04
 858  9.67751895   0.764  -1.57209   3.61838   6.89836   1.96340   0.00000   1.001E+00   0.000E+00  -7.383E-04
 859  9.67844152   0.764  -1.57206   3.61838   6.89835   1.96336   0.00000   1.001E+00   0.000E+00  -7.354E-04
 860  9.67936214   0.764  -1.57203   3.61838   6.89833   1.96331   0.00000   1.001E+00   0.000E+00  -7.326E-04
 861  9.68028080   0.764  -1.57199   3.61838   6.89832   1.96327   0.00000   1.001E+00   0.000E+00  -7.298E-04
 862  9.68119753   0.764  -1.57196   3.61838   6.89831   1.96322   0.00000   1.001E+00   0.000E+00  -7.269E-04
 863  9.68211233   0.764  -1.57193   3.61838   6.89830   1.96318   0.00000   1.001E+00   0.000E+00  -7.241E-04
 864  9.68302520   0.764  -1.57190   3.61839   6.89829   1.96313   0.00000   1.001E+00   0.000E+00  -7.212E-04
 865  9.68393616   0.764  -1.57186   3.61839   6.89828   1.96309   0.00000   1.001E+00   0.000E+00  -7.184E-04
 866  9.68484521   0.764  -1.57183   3.61839   6.89827   1.96304   0.00000   1.001E+00   0.000E+00  -7.156E-04
 867  9.68575237   0.764  -1.57180   3.61839   6.89826   1.96300   0.00000   1.001E+00   0.000E+00  -7.127E-04
 868  9.68665763   0.764  -1.57176   3.61839   6.89825   1.96295   0.00000   1.001E+00   0.000E+00  -7.099E-04
 869  9.68756101   0.764  -1.57173   3.61839   6.89824   1.96291   0.00000   1.001E+00   0.000E+00  -7.071E-04
 870  9.68846251   0.764  -1.57170   3.61839   6.89823   1.96286   0.00000   1.001E+00   0.000E+00  -7.042E-04
 871  9.68936215   0.764  -1.57167   3.61839   6.89822   1.96282   0.00000   1.001E+00   0.000E+00  -7.014E-04
 872  9.69025993   0.764  -1.57163   3.61839   6.89821   1.96277   0.00000   1.001E+00   0.000E+00  -6.986E-04
 873  9.69115585   0.764  -1.57160   3.61839   6.89820   1.96273   0.00000   1.001E+00   0.000E+00  -6.957E-04
 874  9.69204993   0.764  -1.57157   3.61839   6.89819   1.96268   0.00000   1.001E+00   0.000E+00  -6.930E-04
 875  9.69294218   0.764  -1.57154   3.61839   6.89818   1.96264   0.00000   1.001E+00   0.000E+00  -6.905E-04
 876  9.69383259   0.764  -1.57151   3.61839   6.89817   1.96260   0.00000   1.001E+00   0.000E+00  -6.880E-04
 877  9.69472118   0.764  -1.57148   3.61839   6.89816   1.96256   0.00000   1.001E+00   0.000E+00  -6.854E-04
 878  9.69560796   0.764  -1.57144   3.61839   6.89815   1.96252   0.00000   1.001E+00   0.000E+00  -6.829E-04
 879  9.69649293   0.764  -1.57141   3.61839   6.89814   1.96247   0.00000   1.001E+00   0.000E+00  -6.804E-04
 880  9.69737610   0.764  -1.57138   3.61839   6.89813   1.96243   0.00000   1.001E+00   0.000E+00  -6.778E-04
 881  9.69825748   0.764  -1.57135   3.61839   6.89812   1.96239   0.00000   1.001E+00   0.000E+00  -6.753E-04
 882  9.69913708   0.764  -1.57132   3.61839   6.89811   1.96235   0.00000   1.001E+00   0.000E+00  -6.728E-04
 883  9.70001489   0.764  -1.57129   3.61839   6.89810   1.96231   0.00000   1.001E+00   0.000E+00  -6.703E-04
 884  9.70089094   0.764  -1.57126   3.61840   6.89809   1.96226   0.00000   1.001E+00   0.000E+00  -6.677E-04
 885  9.70176522   0.764  -1.57123   3.61840   6.89808   1.96222   0.00000   1.001E+00   0.000E+00  -6.652E-04
 886  9.70263775   0.764  -1.57120   3.61840   6.89807   1.96218   0.00000   1.001E+00   0.000E+00  -6.627E-04
 887  9.70350852   0.764  -1.57117   3.61840   6.89806   1.96214   0.00000   1.001E+00   0.000E+00  -6.601E-04
 888  9.70437755   0.764  -1.57114   3.61840   6.89805   1.96210   0.00000   1.001E+00   0.000E+00  -6.576E-04
 889  9.70524485   0.764  -1.57111   3.61840   6.89804   1.96205   0.00000   1.001E+00   0.000E+00  -6.551E-04
 890  9.70611042   0.764  -1.57107   3.61840   6.89803   1.96201   0.00000   1.001E+00   0.000E+00  -6.525E-04
 891  9.70697427   0.764  -1.57104   3.61840   6.89802   1.96197   0.00000   1.001E+00   0.000E+00  -6.500E-04
 892  9.70783640   0.764  -1.57101   3.61840   6.89801   1.96193   0.00000   1.001E+00   0.000E+00  -6.475E-04
 893  9.70869683   0.764  -1.57098   3.61840   6.89800   1.96189   0.00000   1.001E+00   0.000E+00  -6.450E-04
 894  9.70955555   0.764  -1.57095   3.61840   6.89799   1.96185   0.00000   1.001E+00   0.000E+00  -6.426E-04
 895  9.71041258   0.764  -1.57092   3.61840   6.89799   1.96181   0.00000   1.001E+00   0.000E+00  -6.402E-04
 896  9.71126792   0.764  -1.57090   3.61840   6.89798   1.96177   0.00000   1.001E+00   0.000E+00  -6.379E-04
 897  9.71212158   0.764  -1.57087   3.61840   6.89797   1.96173   0.00000   1.001E+00   0.000E+00  -6.356E-04
 898  9.71297357   0.764  -1.57084   3.61840   6.89796   1.96169   0.00000   1.001E+00   0.000E+00  -6.332E-04
 899  9.71382388   0.764  -1.57081   3.61841   6.89795   1.96165   0.00000   1.001E+00   0.000E+00  -6.309E-04
 900  9.71467254   0.764  -1.57078   3.61841   6.89794   1.96161   0.00000   1.001E+00   0.000E+00  -6.286E-04
 901  9.71551954   0.764  -1.57075   3.61841   6.89793   1.96157   0.00000   1.001E+00   0.000E+00  -6.263E-04
 902  9.71636489   0.764  -1.57073   3.61841   6.89792   1.96153   0.00000   1.001E+00   0.000E+00  -6.239E-04
 903  9.71720860   0.764  -1.57070   3.61841   6.89791   1.96150   0.00000   1.001E+00   0.000E+00  -6.216E-04
 904  9.71805067   0.764  -1.57067   3.61841   6.89790   1.96146   0.00000   1.001E+00   0.000E+00  -6.193E-04
 905  9.71889112   0.764  -1.57064   3.61841   6.89789   1.96142   0.00000   1.001E+00   0.000E+00  -6.169E-04
 906  9.71972994   0.764  -1.57061   3.61841   6.89789   1.96138   0.00000   1.001E+00   0.000E+00  -6.146E-04
 907  9.72056714   0.764  -1.57058   3.61841   6.89788   1.96134   0.00000   1.001E+00   0.000E+00  -6.123E-04
 908  9.72140273   0.764  -1.57056   3.61841   6.89787   1.96130   0.00000   1.001E+00   0.000E+00  -6.100E-04
 909  9.72223672   0.764  -1.57053   3.61842   6.89786   1.96126   0.00000   1.001E+00   0.000E+00  -6.076E-04
 910  9.72306911   0.764  -1.57050   3.61842   6.89785   1.96122   0.00000   1.001E+00   0.000E+00  -6.053E-04
 911  9.72389991   0.764  -1.57047   3.61842   6.89784   1.96118   0.00000   1.001E+00   0.000E+00  -6.030E-04
 912  9.72472912   0.764  -1.57044   3.61842   6.89783   1.96114   0.00000   1.001E+00   0.000E+00  -6.007E-04
 913  9.72555675   0.764  -1.57041   3.61842   6.89782   1.96111   0.00000   1.001E+00   0.000E+00  -5.983E-04
 914  9.72638281   0.764  -1.57039   3.61842   6.89781   1.96107   0.00000   1.001E+00   0.000E+00  -5.962E-04
 915  9.72720729   0.764  -1.57036   3.61842   6.89780   1.96103   0.00000   1.001E+00   0.000E+00  -5.940E-04
 916  9.72803022   0.764  -1.57033   3.61842   6.89780   1.96100   0.00000   1.001E+00   0.000E+00  -5.919E-04
 917  9.72885159   0.764  -1.57030   3.61842   6.89779   1.96096   0.00000   1.001E+00   0.000E+00  -5.898E-04
 918  9.72967141   0.764  -1.57028   3.61842   6.89778   1.96093   0.00000   1.001E+00   0.000E+00  -5.877E-04
 919  9.73048968   0.764  -1.57025   3.61842   6.89777   1.96089   0.00000   1.001E+00   0.000E+00  -5.855E-04
 920  9.73130642   0.764  -1.57022   3.61842   6.89776   1.96085   0.00000   1.001E+00   0.000E+00  -5.834E-04
 921  9.73212162   0.764  -1.57020   3.61842   6.89776   1.96082   0.00000   1.001E+00   0.000E+00  -5.813E-04
 922  9.73293530   0.764  -1.57017   3.61842   6.89775   1.96078   0.00000   1.001E+00   0.000E+00  -5.792E-04
 923  9.73374745   0.764  -1.57014   3.61842   6.89774   1.96075   0.00000   1.001E+00   0.000E+00  -5.770E-04
 924  9.73455809   0.764  -1.57011   3.61843   6.89773   1.96071   0.00000   1.001E+00   0.000E+00  -5.749E-04
 925  9.73536722   0.764  -1.57009   3.61843   6.89772   1.96067   0.00000   1.001E+00   0.000E+00  -5.728E-04
 926  9.73617484   0.763  -1.57006   3.61843   6.89772   1.96064   0.00000   1.001E+00   0.000E+00  -5.707E-04
 927  9.73698096   0.763  -1.57003   3.61843   6.89771   1.96060   0.00000   1.001E+00   0.000E+00  -5.685E-04
 928  9.73778559   0.763  -1.57000   3.61843   6.89770   1.96057   0.00000   1.001E+00   0.000E+00  -5.664E-04
 929  9.73858873   0.763  -1.56998   3.61843   6.89769   1.96053   0.00000   1.001E+00   0.000E+00  -5.643E-04
 930  9.73939039   0.763  -1.56995   3.61843   6.89768   1.96049   0.00000   1.001E+00   0.000E+00  -5.622E-04
 931  9.74019058   0.763  -1.56992   3.61843   6.89768   1.96046   0.00000   1.001E+00   0.000E+00  -5.600E-04
 932  9.74098929   0.763  -1.56989   3.61843   6.89767   1.96042   0.00000   1.001E+00   0.000E+00  -5.579E-04
 933  9.74178653   0.763  -1.56987   3.61843   6.89766   1.96039   0.00000   1.001E+00   0.000E+00  -5.558E-04
 934  9.74258232   0.763  -1.56984   3.61843   6.89765   1.96035   0.00000   1.001E+00   0.000E+00  -5.539E-04
 935  9.74337664   0.763  -1.56982   3.61843   6.89765   1.96032   0.00000   1.001E+00   0.000E+00  -5.521E-04
 936  9.74416952   0.763  -1.56979   3.61843   6.89764   1.96028   0.00000   1.001E+00   0.000E+00  -5.502E-04
 937  9.74496095   0.763  -1.56977   3.61843   6.89763   1.96025   0.00000   1.001E+00   0.000E+00  -5.483E-04
 938  9.74575095   0.763  -1.56974   3.61843   6.89762   1.96022   0.00000   1.001E+00   0.000E+00  -5.465E-04
 939  9.74653951   0.763  -1.56972   3.61843   6.89762   1.96018   0.00000   1.001E+00   0.000E+00  -5.446E-04
 940  9.74732664   0.763  -1.56969   3.61843   6.89761   1.96015   0.00000   1.001E+00   0.000E+00  -5.427E-04
 941  9.74811234   0.763  -1.56967   3.61843   6.89760   1.96012   0.00000   1.001E+00   0.000E+00  -5.408E-04
 942  9.74889663   0.763  -1.56964   3.61843   6.89760   1.96008   0.00000   1.001E+00   0.000E+00  -5.390E-04
 943  9.74967950   0.763  -1.56961   3.61844   6.89759   1.96005   0.00000   1.001E+00   0.000E+00  -5.371E-04
 944  9.75046097   0.763  -1.56959   3.61844   6.89758   1.96001   0.00000   1.001E+00   0.000E+00  -5.352E-04
 945  9.75124103   0.763  -1.56956   3.61844   6.89757   1.95998   0.00000   1.001E+00   0.000E+00  -5.334E-04
 946  9.75201969   0.763  -1.56954   3.61844   6.89757   1.95995   0.00000   1.001E+00   0.000E+00  -5.315E-04
 947  9.75279696   0.763  -1.56951   3.61844   6.89756   1.95991   0.00000   1.001E+00   0.000E+00  -5.296E-04
 948  9.75357284   0.763  -1.56949   3.61844   6.89755   1.95988   0.00000   1.001E+00   0.000E+00  -5.277E-04
 949  9.75434734   0.763  -1.56946   3.61844   6.89755   1.95984   0.00000   1.001E+00   0.000E+00  -5.259E-04
 950  9.75512046   0.763  -1.56944   3.61844   6.89754   1.95981   0.00000   1.001E+00   0.000E+00  -5.240E-04
 951  9.75589220   0.763  -1.56941   3.61844   6.89753   1.95978   0.00000   1.001E+00   0.000E+00  -5.221E-04
 952  9.75666257   0.763  -1.56939   3.61844   6.89752   1.95974   0.00000   1.001E+00   0.000E+00  -5.202E-04
 953  9.75743159   0.763  -1.56936   3.61844   6.89752   1.95971   0.00000   1.001E+00   0.000E+00  -5.184E-04
 954  9.75819924   0.763  -1.56934   3.61844   6.89751   1.95968   0.00000   1.001E+00   0.000E+00  -5.166E-04
 955  9.75896553   0.763  -1.56931   3.61844   6.89750   1.95965   0.00000   1.001E+00   0.000E+00  -5.149E-04
 956  9.75973048   0.763  -1.56929   3.61844   6.89750   1.95962   0.00000   1.001E+00   0.000E+00  -5.131E-04
 957  9.76049408   0.763  -1.56927   3.61844   6.89749   1.95958   0.00000   1.001E+00   0.000E+00  -5.113E-04
 958  9.76125635   0.763  -1.56924   3.61845   6.89748   1.95955   0.00000   1.001E+00   0.000E+00  -5.096E-04
 959  9.76201727   0.763  -1.56922   3.61845   6.89748   1.95952   0.00000   1.001E+00   0.000E+00  -5.078E-04
 960  9.76277687   0.763  -1.56920   3.61845   6.89747   1.95949   0.00000   1.001E+00   0.000E+00  -5.060E-04
 961  9.76353514   0.763  -1.56917   3.61845   6.89747   1.95946   0.00000   1.001E+00   0.000E+00  -5.042E-04
 962  9.76429209   0.763  -1.56915   3.61845   6.89746   1.95943   0.00000   1.001E+00   0.000E+00  -5.025E-04
 963  9.76504772   0.763  -1.56912   3.61845   6.89745   1.95940   0.00000   1.000E+00   0.000E+00  -5.007E-04
 964  9.76580203   0.763  -1.56910   3.61845   6.89745   1.95936   0.00000   1.000E+00   0.000E+00  -4.989E-04
 965  9.76655504   0.763  -1.56908   3.61845   6.89744   1.95933   0.00000   1.000E+00   0.000E+00  -4.972E-04
 966  9.76730675   0.763  -1.56905   3.61845   6.89743   1.95930   0.00000   1.000E+00   0.000E+00  -4.954E-04
 967  9.76805716   0.763  -1.56903   3.61845   6.89743   1.95927   0.00000   1.000E+00   0.000E+00  -4.936E-04
 968  9.76880627   0.763  -1.56901   3.61846   6.89742   1.95924   0.00000   1.000E+00   0.000E+00  -4.918E-04
 969  9.76955410   0.763  -1.56898   3.61846   6.89741   1.95921   0.00000   1.000E+00   0.000E+00  -4.901E-04
 970  9.77030064   0.763  -1.56896   3.61846   6.89741   1.95918   0.00000   1.000E+00   0.000E+00  -4.883E-04
 971  9.77104589   0.763  -1.56893   3.61846   6.89740   1.95914   0.00000   1.000E+00   0.000E+00  -4.865E-04
 972  9.77178987   0.763  -1.56891   3.61846   6.89739   1.95911   0.00000   1.000E+00   0.000E+00  -4.848E-04
 973  9.77253258   0.763  -1.56889   3.61846   6.89739   1.95908   0.00000   1.000E+00   0.000E+00  -4.831E-04
 974  9.77327402   0.763  -1.56886   3.61846   6.89738   1.95905   0.00000   1.000E+00   0.000E+00  -4.815E-04
 975  9.77401420   0.763  -1.56884   3.61846   6.89737   1.95902   0.00000   1.000E+00   0.000E+00  -4.800E-04
 976  9.77475312   0.763  -1.56882   3.61846   6.89737   1.95899   0.00000   1.000E+00   0.000E+00  -4.784E-04
 977  9.77549078   0.763  -1.56880   3.61846   6.89736   1.95896   0.00000   1.000E+00   0.000E+00  -4.768E-04
 978  9.77622719   0.763  -1.56878   3.61846   6.89736   1.95893   0.00000   1.000E+00   0.000E+00  -4.753E-04
 979  9.77696236   0.763  -1.56875   3.61846   6.89735   1.95890   0.00000   1.000E+00   0.000E+00  -4.737E-04
 980  9.77769628   0.763  -1.56873   3.61846   6.89734   1.95887   0.00000   1.000E+00   0.000E+00  -4.721E-04
 981  9.77842896   0.763  -1.56871   3.61846   6.89734   1.95884   0.00000   1.000E+00   0.000E+00  -4.706E-04
 982  9.77916041   0.763  -1.56869   3.61846   6.89733   1.95881   0.00000   1.000E+00   0.000E+00  -4.690E-04
 983  9.77989063   0.763  -1.56866   3.61847   6.89733   1.95878   0.00000   1.000E+00   0.000E+00  -4.674E-04
 984  9.78061963   0.763  -1.56864   3.61847   6.89732   1.95875   0.00000   1.000E+00   0.000E+00  -4.658E-04
 985  9.78134740   0.763  -1.56862   3.61847   6.89731   1.95872   0.00000   1.000E+00   0.000E+00  -4.643E-04
 986  9.78207396   0.763  -1.56860   3.61847   6.89731   1.95869   0.00000   1.000E+00   0.000E+00  -4.627E-04
 987  9.78279930   0.763  -1.56858   3.61847   6.89730   1.95866   0.00000   1.000E+00   0.000E+00  -4.611E-04
 988  9.78352343   0.763  -1.56855   3.61847   6.89730   1.95864   0.00000   1.000E+00   0.000E+00  -4.596E-04
 989  9.78424636   0.763  -1.56853   3.61847   6.89729   1.95861   0.00000   1.000E+00   0.000E+00  -4.580E-04
 990  9.78496809   0.763  -1.56851   3.61847   6.89728   1.95858   0.00000   1.000E+00   0.000E+00  -4.564E-04
 991  9.78568861   0.763  -1.56849   3.61847   6.89728   1.95855   0.00000   1.000E+00   0.000E+00  -4.549E-04
 992  9.78640795   0.763  -1.56846   3.61847   6.89727   1.95852   0.00000   1.000E+00   0.000E+00  -4.533E-04
 993  9.78712610   0.763  -1.56844   3.61847   6.89727   1.95849   0.00000   1.000E+00   0.000E+00  -4.518E-04
 994  9.78784306   0.763  -1.56842   3.61847   6.89726   1.95846   0.00000   1.000E+00   0.000E+00  -4.503E-04
 995  9.78855883   0.763  -1.56840   3.61847   6.89725   1.95843   0.00000   1.000E+00   0.000E+00  -4.489E-04
 996  9.78927343   0.763  -1.56838   3.61847   6.89725   1.95841   0.00000   1.000E+00   0.000E+00  -4.474E-04
 997  9.78998686   0.763  -1.56836   3.61847   6.89724   1.95838   0.00000   1.000E+00   0.000E+00  -4.459E-04
 998  9.79069912   0.763  -1.56834   3.61847   6.89724   1.95835   0.00000   1.000E+00   0.000E+00  -4.445E-04
 999  9.79141021   0.763  -1.56832   3.61847   6.89723   1.95832   0.00000   1.000E+00   0.000E+00  -4.430E-04
1000  9.79212014   0.763  -1.56830   3.61847   6.89723   1.95830   0.00000   1.000E+00   0.000E+00  -4.415E-04
1001  9.79282891   0.763  -1.56828   3.61847   6.89722   1.95827   0.00000   1.000E+00   0.000E+00  -4.401E-04
1002  9.79353652   0.763  -1.56826   3.61847   6.89722   1.95824   0.00000   1.000E+00   0.000E+00  -4.386E-04
1003  9.79424298   0.763  -1.56824   3.61848   6.89721   1.95821   0.00000   1.000E+00   0.000E+00  -4.371E-04
1004  9.79494830   0.763  -1.56821   3.61848   6.89720   1.95819   0.00000   1.000E+00   0.000E+00  -4.357E-04
1005  9.79565247   0.763  -1.56819   3.61848   6.89720   1.95816   0.00000   1.000E+00   0.000E+00  -4.342E-04
1006  9.79635551   0.763  -1.56817   3.61848   6.89719   1.95813   0.00000   1.000E+00   0.000E+00  -4.327E-04
1007  9.79705740   0.763  -1.56815   3.61848   6.89719   1.95811   0.00000   1.000E+00   0.000E+00  -4.313E-04
1008  9.79775817   0.763  -1.56813   3.61848   6.89718   1.95808   0.00000   1.000E+00   0.000E+00  -4.298E-04
1009  9.79845780   0.763  -1.56811   3.61848   6.89718   1.95805   0.00000   1.000E+00   0.000E+00  -4.283E-04
1010  9.79915631   0.763  -1.56809   3.61848   6.89717   1.95802   0.00000   1.000E+00   0.000E+00  -4.269E-04
1011  9.79985370   0.763  -1.56807   3.61848   6.89717   1.95800   0.00000   1.000E+00   0.000E+00  -4.254E-04
1012  9.80054997   0.763  -1.56805   3.61848   6.89716   1.95797   0.00000   1.000E+00   0.000E+00  -4.239E-04
1013  9.80124513   0.763  -1.56803   3.61848   6.89715   1.95794   0.00000   1.000E+00   0.000E+00  -4.225E-04
1014  9.80193917   0.763  -1.56801   3.61848   6.89715   1.95792   0.00000   1.000E+00   0.000E+00  -4.211E-04
1015  9.80263211   0.763  -1.56799   3.61848   6.89714   1.95789   0.00000   1.000E+00   0.000E+00  -4.197E-04
1016  9.80332394   0.763  -1.56797   3.61848   6.89714   1.95787   0.00000   1.000E+00   0.000E+00  -4.183E-04
1017  9.80401467   0.763  -1.56795   3.61848   6.89713   1.95784   0.00000   1.000E+00   0.000E+00  -4.168E-04
1018  9.80470431   0.763  -1.56793   3.61848   6.89713   1.95781   0.00000   1.000E+00   0.000E+00  -4.154E-04
1019  9.80539285   0.763  -1.56791   3.61848   6.89712   1.95779   0.00000   1.000E+00   0.000E+00  -4.140E-04
1020  9.80608031   0.763  -1.56789   3.61848   6.89712   1.95776   0.00000   1.000E+00   0.000E+00  -4.126E-04
1021  9.80676667   0.763  -1.56787   3.61848   6.89711   1.95774   0.00000   1.000E+00   0.000E+00  -4.112E-04
1022  9.80745196   0.763  -1.56785   3.61849   6.89711   1.95771   0.00000   1.000E+00   0.000E+00  -4.098E-04
1023  9.80813616   0.763  -1.56783   3.61849   6.89710   1.95768   0.00000   1.000E+00   0.000E+00  -4.083E-04
1024  9.80881929   0.763  -1.56781   3.61849   6.89710   1.95766   0.00000   1.000E+00   0.000E+00  -4.069E-04
1025  9.80950134   0.763  -1.56779   3.61849   6.89709   1.95763   0.00000   1.000E+00   0.000E+00  -4.055E-04
1026  9.81018233   0.763  -1.56777   3.61849   6.89709   1.95761   0.00000   1.000E+00   0.000E+00  -4.041E-04
1027  9.81086225   0.763  -1.56775   3.61849   6.89708   1.95758   0.00000   1.000E+00   0.000E+00  -4.027E-04
1028  9.81154110   0.763  -1.56773   3.61849   6.89708   1.95756   0.00000   1.000E+00   0.000E+00  -4.013E-04
1029  9.81221890   0.763  -1.56770   3.61849   6.89707   1.95753   0.00000   1.000E+00   0.000E+00  -3.998E-04
1030  9.81289564   0.763  -1.56768   3.61849   6.89707   1.95750   0.00000   1.000E+00   0.000E+00  -3.984E-04
1031  9.81357133   0.763  -1.56766   3.61849   6.89706   1.95748   0.00000   1.000E+00   0.000E+00  -3.970E-04
1032  9.81424597   0.763  -1.56764   3.61849   6.89706   1.95745   0.00000   1.000E+00   0.000E+00  -3.956E-04
1033  9.81491956   0.763  -1.56763   3.61849   6.89705   1.95743   0.00000   1.000E+00   0.000E+00  -3.944E-04
1034  9.81559211   0.763  -1.56761   3.61849   6.89705   1.95740   0.00000   1.000E+00   0.000E+00  -3.931E-04
1035  9.81626362   0.763  -1.56759   3.61849   6.89705   1.95738   0.00000   1.000E+00   0.000E+00  -3.918E-04
1036  9.81693409   0.763  -1.56757   3.61849   6.89704   1.95736   0.00000   1.000E+00   0.000E+00  -3.906E-04
1037  9.81760353   0.763  -1.56755   3.61850   6.89704   1.95733   0.00000   1.000E+00   0.000E+00  -3.893E-04
1038  9.81827193   0.763  -1.56753   3.61850   6.89703   1.95731   0.00000   1.000E+00   0.000E+00  -3.880E-04
1039  9.81893932   0.763  -1.56751   3.61850   6.89703   1.95728   0.00000   1.000E+00   0.000E+00  -3.868E-04
1040  9.81960567   0.763  -1.56749   3.61850   6.89703   1.95726   0.00000   1.000E+00   0.000E+00  -3.855E-04
1041  9.82027101   0.763  -1.56748   3.61850   6.89702   1.95723   0.00000   1.000E+00   0.000E+00  -3.843E-04
1042  9.82093533   0.762  -1.56746   3.61850   6.89702   1.95721   0.00000   1.000E+00   0.000E+00  -3.830E-04
1043  9.82159863   0.762  -1.56744   3.61850   6.89701   1.95719   0.00000   1.000E+00   0.000E+00  -3.817E-04
1044  9.82226092   0.762  -1.56742   3.61850   6.89701   1.95716   0.00000   1.000E+00   0.000E+00  -3.805E-04
1045  9.82292221   0.762  -1.56740   3.61850   6.89701   1.95714   0.00000   1.000E+00   0.000E+00  -3.792E-04
1046  9.82358249   0.762  -1.56738   3.61850   6.89700   1.95711   0.00000   1.000E+00   0.000E+00  -3.779E-04
1047  9.82424176   0.762  -1.56736   3.61851   6.89700   1.95709   0.00000   1.000E+00   0.000E+00  -3.767E-04
1048  9.82490004   0.762  -1.56735   3.61851   6.89699   1.95706   0.00000   1.000E+00   0.000E+00  -3.754E-04
1049  9.82555732   0.762  -1.56733   3.61851   6.89699   1.95704   0.00000   1.000E+00   0.000E+00  -3.741E-04
1050  9.82621361   0.762  -1.56731   3.61851   6.89699   1.95702   0.00000   1.000E+00   0.000E+00  -3.729E-04
1051  9.82686891   0.762  -1.56729   3.61851   6.89698   1.95699   0.00000   1.000E+00   0.000E+00  -3.716E-04
1052  9.82752322   0.762  -1.56727   3.61851   6.89698   1.95697   0.00000   1.000E+00   0.000E+00  -3.704E-04
1053  9.82817654   0.762  -1.56725   3.61851   6.89697   1.95695   0.00000   1.000E+00   0.000E+00  -3.692E-04
1054  9.82882889   0.762  -1.56724   3.61851   6.89697   1.95692   0.00000   1.000E+00   0.000E+00  -3.681E-04
1055  9.82948025   0.762  -1.56722   3.61851   6.89697   1.95690   0.00000   1.000E+00   0.000E+00  -3.669E-04
1056  9.83013064   0.762  -1.56720   3.61851   6.89696   1.95688   0.00000   1.000E+00   0.000E+00  -3.657E-04
1057  9.83078006   0.762  -1.56718   3.61851   6.89696   1.95686   0.00000   1.000E+00   0.000E+00  -3.646E-04
1058  9.83142851   0.762  -1.56716   3.61851   6.89695   1.95683   0.00000   1.000E+00   0.000E+00  -3.634E-04
1059  9.83207599   0.762  -1.56715   3.61851   6.89695   1.95681   0.00000   1.000E+00   0.000E+00  -3.622E-04
1060  9.83272251   0.762  -1.56713   3.61851   6.89695   1.95679   0.00000   1.000E+00   0.000E+00  -3.611E-04
1061  9.83336806   0.762  -1.56711   3.61851   6.89694   1.95677   0.00000   1.000E+00   0.000E+00  -3.599E-04
1062  9.83401266   0.762  -1.56709   3.61852   6.89694   1.95675   0.00000   1.000E+00   0.000E+00  -3.588E-04
1063  9.83465630   0.762  -1.56708   3.61852   6.89693   1.95672   0.00000   1.000E+00   0.000E+00  -3.576E-04
1064  9.83529900   0.762  -1.56706   3.61852   6.89693   1.95670   0.00000   1.000E+00   0.000E+00  -3.564E-04
1065  9.83594074   0.762  -1.56704   3.61852   6.89693   1.95668   0.00000   1.000E+00   0.000E+00  -3.553E-04
1066  9.83658153   0.762  -1.56702   3.61852   6.89692   1.95666   0.00000   1.000E+00   0.000E+00  -3.541E-04
1067  9.83722138   0.762  -1.56701   3.61852   6.89692   1.95663   0.00000   1.000E+00   0.000E+00  -3.529E-04
1068  9.83786029   0.762  -1.56699   3.61852   6.89691   1.95661   0.00000   1.000E+00   0.000E+00  -3.518E-04
1069  9.83849826   0.762  -1.56697   3.61852   6.89691   1.95659   0.00000   1.000E+00   0.000E+00  -3.506E-04
1070  9.83913529   0.762  -1.56695   3.61852   6.89691   1.95657   0.00000   1.000E+00   0.000E+00  -3.494E-04
1071  9.83977139   0.762  -1.56693   3.61852   6.89690   1.95655   0.00000   1.000E+00   0.000E+00  -3.483E-04
1072  9.84040657   0.762  -1.56690   3.61852   6.89689   1.95650   0.00000   1.000E+00   0.000E+00  -3.673E-04
1073  9.84104081   0.762  -1.56686   3.61852   6.89688   1.95644   0.00000   1.000E+00   0.000E+00  -3.927E-04
1074  9.84167413   0.762  -1.56682   3.61852   6.89686   1.95638   0.00000   1.000E+00   0.000E+00  -4.180E-04
1075  9.84230652   0.762  -1.56678   3.61852   6.89685   1.95633   0.00000   1.000E+00   0.000E+00  -4.434E-04
1076  9.84293800   0.762  -1.56674   3.61852   6.89683   1.95627   0.00000   1.000E+00   0.000E+00  -4.687E-04
1077  9.84356856   0.762  -1.56670   3.61852   6.89682   1.95622   0.00000   1.000E+00   0.000E+00  -4.941E-04
1078  9.84419821   0.762  -1.56666   3.61852   6.89680   1.95616   0.00000   1.000E+00   0.000E+00  -5.194E-04
1079  9.84482694   0.762  -1.56662   3.61852   6.89679   1.95610   0.00000   1.000E+00   0.000E+00  -5.448E-04
1080  9.84545476   0.762  -1.56658   3.61852   6.89678   1.95605   0.00000   1.000E+00   0.000E+00  -5.701E-04
1081  9.84608168   0.762  -1.56653   3.61852   6.89676   1.95599   0.00000   1.000E+00   0.000E+00  -5.955E-04
1082  9.84670770   0.762  -1.56649   3.61853   6.89675   1.95594   0.00000   1.001E+00   0.000E+00  -6.208E-04
1083  9.84733281   0.762  -1.56645   3.61853   6.89673   1.95588   0.00000   1.001E+00   0.000E+00  -6.462E-04
1084  9.84795703   0.762  -1.56641   3.61853   6.89672   1.95582   0.00000   1.001E+00   0.000E+00  -6.715E-04
1085  9.84858035   0.762  -1.56637   3.61853   6.89671   1.95577   0.00000   1.001E+00   0.000E+00  -6.969E-04
1086  9.84920277   0.762  -1.56633   3.61853   6.89669   1.95571   0.00000   1.001E+00   0.000E+00  -7.222E-04
1087  9.84982431   0.762  -1.56629   3.61853   6.89668   1.95565   0.00000   1.001E+00   0.000E+00  -7.476E-04
1088  9.85044496   0.762  -1.56625   3.61853   6.89666   1.95560   0.00000   1.001E+00   0.000E+00  -7.729E-04
1089  9.85106472   0.762  -1.56621   3.61853   6.89665   1.95554   0.00000   1.001E+00   0.000E+00  -7.983E-04
1090  9.85168360   0.762  -1.56617   3.61853   6.89663   1.95549   0.00000   1.001E+00   0.000E+00  -8.236E-04
1091  9.85230160   0.762  -1.56613   3.61853   6.89662   1.95543   0.00000   1.001E+00   0.000E+00  -8.490E-04
