 # M = 1.30 Mo, Y = 0.2300, Z = 2.00000E-04, alpha = 1.20, X_D = 4.0E-05
 # Solar Mixture: Asplund et al. (2005)         
 # ------------------------------------------------------------------------------------------------------------
 # NMD   LOG AGE    Xc      LOG L     LOG TE    LOG Tc   LOG RHOc    M-CC       L-PP       L-CNO       L-GRA
 #        (yr)              (Lo)        (K)       (K)   (gr/cm^3)    (Mo)        (L)         (L)         (L)
 # ------------------------------------------------------------------------------------------------------------
   1  5.06500711   0.770   1.40335   3.69657   6.15682  -1.42276   0.00000   9.400E-01   0.000E+00   6.020E-02
   2  5.10964931   0.770   1.39921   3.69672   6.15915  -1.41577   0.00000   9.410E-01   0.000E+00   5.919E-02
   3  5.15012736   0.770   1.39506   3.69688   6.16148  -1.40877   0.00000   9.420E-01   0.000E+00   5.817E-02
   4  5.18715224   0.770   1.39092   3.69703   6.16381  -1.40178   0.00000   9.430E-01   0.000E+00   5.716E-02
   5  5.22126711   0.770   1.38677   3.69719   6.16614  -1.39479   0.00000   9.440E-01   0.000E+00   5.624E-02
   6  5.25289625   0.770   1.38266   3.69734   6.16845  -1.38785   0.00000   9.433E-01   0.000E+00   5.685E-02
   7  5.28237743   0.770   1.37854   3.69749   6.17077  -1.38092   0.00000   9.426E-01   0.000E+00   5.746E-02
   8  5.30998392   0.770   1.37442   3.69765   6.17308  -1.37398   0.00000   9.419E-01   0.000E+00   5.808E-02
   9  5.33593996   0.770   1.37031   3.69780   6.17539  -1.36704   0.00000   9.412E-01   0.000E+00   5.869E-02
  10  5.36043181   0.770   1.36597   3.69796   6.17782  -1.35974   0.00000   9.398E-01   0.000E+00   6.018E-02
  11  5.38361588   0.770   1.36153   3.69812   6.18032  -1.35226   0.00000   9.380E-01   0.000E+00   6.213E-02
  12  5.40562477   0.770   1.35708   3.69828   6.18281  -1.34478   0.00000   9.362E-01   0.000E+00   6.408E-02
  13  5.42657190   0.770   1.35264   3.69844   6.18531  -1.33729   0.00000   9.344E-01   0.000E+00   6.602E-02
  14  5.44655502   0.770   1.34803   3.69860   6.18789  -1.32954   0.00000   9.321E-01   0.000E+00   6.841E-02
  15  5.46565896   0.770   1.34292   3.69878   6.19075  -1.32094   0.00000   9.281E-01   0.000E+00   7.221E-02
  16  5.48395784   0.770   1.33781   3.69897   6.19362  -1.31233   0.00000   9.242E-01   0.000E+00   7.601E-02
  17  5.50151678   0.770   1.33270   3.69915   6.19648  -1.30373   0.00000   9.203E-01   0.000E+00   7.981E-02
  18  5.51839329   0.770   1.32742   3.69933   6.19944  -1.29485   0.00000   9.159E-01   0.000E+00   8.408E-02
  19  5.53463844   0.770   1.32125   3.69955   6.20289  -1.28449   0.00000   9.091E-01   0.000E+00   9.086E-02
  20  5.55029778   0.770   1.31508   3.69977   6.20634  -1.27413   0.00000   9.024E-01   0.000E+00   9.763E-02
  21  5.56541209   0.770   1.30891   3.69999   6.20979  -1.26377   0.00000   8.956E-01   0.000E+00   1.044E-01
  22  5.58001803   0.770   1.30182   3.70023   6.21375  -1.25188   0.00000   8.852E-01   0.000E+00   1.148E-01
  23  5.59414869   0.770   1.29416   3.70050   6.21803  -1.23904   0.00000   8.726E-01   0.000E+00   1.274E-01
  24  5.60783403   0.770   1.28651   3.70077   6.22231  -1.22620   0.00000   8.600E-01   0.000E+00   1.400E-01
  25  5.62110127   0.770   1.27752   3.70108   6.22733  -1.21115   0.00000   8.413E-01   0.000E+00   1.587E-01
  26  5.63397519   0.770   1.26792   3.70141   6.23269  -1.19506   0.00000   8.197E-01   0.000E+00   1.803E-01
  27  5.64647845   0.770   1.25756   3.70176   6.23847  -1.17772   0.00000   7.934E-01   0.000E+00   2.066E-01
  28  5.65863179   0.770   1.24558   3.70216   6.24515  -1.15771   0.00000   7.568E-01   0.000E+00   2.432E-01
  29  5.67045427   0.770   1.23246   3.70259   6.25245  -1.13581   0.00000   7.119E-01   0.000E+00   2.881E-01
  30  5.68196343   0.770   1.21783   3.70307   6.26057  -1.11144   0.00000   6.558E-01   0.000E+00   3.442E-01
  31  5.69317544   0.770   1.20084   3.70363   6.27001  -1.08308   0.00000   5.800E-01   0.000E+00   4.200E-01
  32  5.70410526   0.770   1.18203   3.70423   6.28045  -1.05177   0.00000   4.901E-01   0.000E+00   5.099E-01
  33  5.71476676   0.770   1.16128   3.70488   6.29194  -1.01730   0.00000   3.884E-01   0.000E+00   6.116E-01
  34  5.72517278   0.770   1.13895   3.70556   6.30435  -0.98017   0.00000   2.833E-01   0.000E+00   7.167E-01
  35  5.73533530   0.770   1.11564   3.70626   6.31722  -0.94159   0.00000   1.888E-01   0.000E+00   8.112E-01
  36  5.74526543   0.770   1.09216   3.70694   6.33015  -0.90284   0.00000   1.168E-01   0.000E+00   8.832E-01
  37  5.75497358   0.770   1.06928   3.70758   6.34281  -0.86504   0.00000   6.702E-02   0.000E+00   9.330E-01
  38  5.76446945   0.770   1.04732   3.70818   6.35485  -0.82898   0.00000   3.606E-02   0.000E+00   9.639E-01
  39  5.77376213   0.770   1.02652   3.70873   6.36560  -0.79422   0.00000   1.871E-02   0.000E+00   9.813E-01
  40  5.78286013   0.770   1.00691   3.70922   6.37494  -0.76031   0.00000   5.464E-03   0.000E+00   9.936E-01
  41  5.79177144   0.770   0.98855   3.70968   6.38364  -0.72831   0.00000   2.000E-03   0.000E+00   9.980E-01
  42  5.80155144   0.770   0.96933   3.71015   6.39273  -0.69467   0.00000   9.086E-04   0.000E+00   9.991E-01
  43  5.81111604   0.770   0.95133   3.71058   6.40122  -0.66291   0.00000   0.000E+00   0.000E+00   1.000E+00
  44  5.82047453   0.770   0.93440   3.71097   6.40917  -0.63282   0.00000   0.000E+00   0.000E+00   1.000E+00
  45  5.82963560   0.770   0.91846   3.71133   6.41664  -0.60421   0.00000   0.000E+00   0.000E+00   1.000E+00
  46  5.83860742   0.770   0.90347   3.71166   6.42364  -0.57710   0.00000   0.000E+00   0.000E+00   1.000E+00
  47  5.84739763   0.770   0.88933   3.71197   6.43025  -0.55120   0.00000   0.000E+00   0.000E+00   1.000E+00
  48  5.85601346   0.770   0.87589   3.71227   6.43653  -0.52636   0.00000   0.000E+00   0.000E+00   1.000E+00
  49  5.86446167   0.770   0.86305   3.71254   6.44252  -0.50244   0.00000   0.000E+00   0.000E+00   1.000E+00
  50  5.87274868   0.770   0.85076   3.71281   6.44828  -0.47932   0.00000   0.000E+00   0.000E+00   1.000E+00
  51  5.88088051   0.770   0.83926   3.71305   6.45367  -0.45737   0.00000   0.000E+00   0.000E+00   1.000E+00
  52  5.88886288   0.770   0.82818   3.71329   6.45889  -0.43604   0.00000   0.000E+00   0.000E+00   1.000E+00
  53  5.89670117   0.770   0.81746   3.71352   6.46396  -0.41524   0.00000   0.000E+00   0.000E+00   1.000E+00
  54  5.90440050   0.770   0.80743   3.71374   6.46874  -0.39543   0.00000   0.000E+00   0.000E+00   1.000E+00
  55  5.91196571   0.770   0.79769   3.71395   6.47340  -0.37605   0.00000   0.000E+00   0.000E+00   1.000E+00
  56  5.91940139   0.770   0.78833   3.71416   6.47791  -0.35723   0.00000   0.000E+00   0.000E+00   1.000E+00
  57  5.92671190   0.770   0.77945   3.71436   6.48223  -0.33909   0.00000   0.000E+00   0.000E+00   1.000E+00
  58  5.93390139   0.770   0.77072   3.71456   6.48649  -0.32117   0.00000   0.000E+00   0.000E+00   1.000E+00
  59  5.94097379   0.770   0.76257   3.71475   6.49052  -0.30409   0.00000   0.000E+00   0.000E+00   1.000E+00
  60  5.94793286   0.770   0.75450   3.71494   6.49453  -0.28712   0.00000   0.000E+00   0.000E+00   1.000E+00
  61  5.95478218   0.770   0.74695   3.71513   6.49835  -0.27088   0.00000   0.000E+00   0.000E+00   1.000E+00
  62  5.96152516   0.770   0.73947   3.71532   6.50214  -0.25473   0.00000   0.000E+00   0.000E+00   1.000E+00
  63  5.96816503   0.770   0.73244   3.71551   6.50577  -0.23924   0.00000   0.000E+00   0.000E+00   1.000E+00
  64  5.97470492   0.770   0.72544   3.71569   6.50938  -0.22380   0.00000   0.000E+00   0.000E+00   1.000E+00
  65  5.98114779   0.770   0.71892   3.71587   6.51283  -0.20903   0.00000   0.000E+00   0.000E+00   1.000E+00
  66  5.98749647   0.770   0.71240   3.71605   6.51627  -0.19425   0.00000   0.000E+00   0.000E+00   1.000E+00
  67  5.99375368   0.770   0.70630   3.71623   6.51957  -0.18008   0.00000   0.000E+00   0.000E+00   1.000E+00
  68  5.99992201   0.770   0.70025   3.71641   6.52286  -0.16598   0.00000   0.000E+00   0.000E+00   1.000E+00
  69  6.00600396   0.770   0.69449   3.71659   6.52605  -0.15226   0.00000   0.000E+00   0.000E+00   1.000E+00
  70  6.01200192   0.770   0.68889   3.71676   6.52917  -0.13878   0.00000   0.000E+00   0.000E+00   1.000E+00
  71  6.01791816   0.770   0.68339   3.71694   6.53227  -0.12543   0.00000   0.000E+00   0.000E+00   1.000E+00
  72  6.02375489   0.770   0.67823   3.71712   6.53527  -0.11254   0.00000   0.000E+00   0.000E+00   1.000E+00
  73  6.02951422   0.770   0.67306   3.71730   6.53826  -0.09966   0.00000   0.000E+00   0.000E+00   1.000E+00
  74  6.03519817   0.770   0.66818   3.71748   6.54116  -0.08717   0.00000   0.000E+00   0.000E+00   1.000E+00
  75  6.04080869   0.770   0.66342   3.71765   6.54403  -0.07483   0.00000   0.000E+00   0.000E+00   1.000E+00
  76  6.04634765   0.770   0.65869   3.71783   6.54688  -0.06255   0.00000   0.000E+00   0.000E+00   1.000E+00
  77  6.05181685   0.770   0.65431   3.71801   6.54964  -0.05073   0.00000   0.000E+00   0.000E+00   1.000E+00
  78  6.05721804   0.770   0.64993   3.71819   6.55239  -0.03890   0.00000   0.000E+00   0.000E+00   1.000E+00
  79  6.06255288   0.770   0.64569   3.71837   6.55510  -0.02726   0.00000   0.000E+00   0.000E+00   1.000E+00
  80  6.06782298   0.770   0.64168   3.71855   6.55774  -0.01592   0.00000   0.000E+00   0.000E+00   1.000E+00
  81  6.07302989   0.770   0.63767   3.71873   6.56039  -0.00457   0.00000   0.000E+00   0.000E+00   1.000E+00
  82  6.07817512   0.770   0.63384   3.71892   6.56298   0.00653   0.00000   0.000E+00   0.000E+00   1.000E+00
  83  6.08326010   0.770   0.63016   3.71910   6.56553   0.01741   0.00000   0.000E+00   0.000E+00   1.000E+00
  84  6.08828623   0.770   0.62649   3.71929   6.56807   0.02830   0.00000   0.000E+00   0.000E+00   1.000E+00
  85  6.09325486   0.770   0.62301   3.71948   6.57057   0.03894   0.00000   0.000E+00   0.000E+00   1.000E+00
  86  6.09816729   0.770   0.61968   3.71966   6.57302   0.04940   0.00000   0.000E+00   0.000E+00   1.000E+00
  87  6.10302477   0.770   0.61634   3.71985   6.57548   0.05987   0.00000   0.000E+00   0.000E+00   1.000E+00
  88  6.10782852   0.770   0.61316   3.72004   6.57790   0.07014   0.00000   0.000E+00   0.000E+00   1.000E+00
  89  6.11257972   0.770   0.61014   3.72024   6.58027   0.08021   0.00000   0.000E+00   0.000E+00   1.000E+00
  90  6.11727950   0.770   0.60712   3.72043   6.58265   0.09027   0.00000   0.000E+00   0.000E+00   1.000E+00
  91  6.12192897   0.770   0.60418   3.72062   6.58500   0.10024   0.00000   0.000E+00   0.000E+00   1.000E+00
  92  6.12652919   0.770   0.60148   3.72082   6.58730   0.10994   0.00000   0.000E+00   0.000E+00   1.000E+00
  93  6.13108119   0.770   0.59877   3.72102   6.58960   0.11963   0.00000   0.000E+00   0.000E+00   1.000E+00
  94  6.13558597   0.770   0.59606   3.72122   6.59190   0.12933   0.00000   0.000E+00   0.000E+00   1.000E+00
  95  6.14004451   0.770   0.59363   3.72142   6.59414   0.13870   0.00000   0.000E+00   0.000E+00   1.000E+00
  96  6.14445773   0.770   0.59122   3.72163   6.59637   0.14805   0.00000   0.000E+00   0.000E+00   1.000E+00
  97  6.14882657   0.770   0.58881   3.72183   6.59861   0.15740   0.00000   0.000E+00   0.000E+00   1.000E+00
  98  6.15315189   0.770   0.58653   3.72204   6.60081   0.16659   0.00000   0.000E+00   0.000E+00   1.000E+00
  99  6.15743456   0.770   0.58441   3.72225   6.60298   0.17562   0.00000   0.000E+00   0.000E+00   1.000E+00
 100  6.16167541   0.770   0.58229   3.72247   6.60515   0.18465   0.00000   0.000E+00   0.000E+00   1.000E+00
 101  6.16587524   0.770   0.58017   3.72268   6.60732   0.19368   0.00000   0.000E+00   0.000E+00   1.000E+00
 102  6.17003485   0.770   0.57831   3.72290   6.60944   0.20244   0.00000   0.000E+00   0.000E+00   1.000E+00
 103  6.17415500   0.770   0.57648   3.72312   6.61156   0.21116   0.00000   0.000E+00   0.000E+00   1.000E+00
 104  6.17823643   0.770   0.57465   3.72334   6.61368   0.21989   0.00000   0.000E+00   0.000E+00   1.000E+00
 105  6.18227986   0.770   0.57287   3.72357   6.61579   0.22856   0.00000   0.000E+00   0.000E+00   1.000E+00
 106  6.18628599   0.770   0.57131   3.72380   6.61786   0.23701   0.00000   0.000E+00   0.000E+00   1.000E+00
 107  6.19025550   0.770   0.56975   3.72403   6.61993   0.24546   0.00000   0.000E+00   0.000E+00   1.000E+00
 108  6.19418906   0.770   0.56820   3.72426   6.62200   0.25391   0.00000   0.000E+00   0.000E+00   1.000E+00
 109  6.19808731   0.770   0.56674   3.72449   6.62405   0.26226   0.00000   0.000E+00   0.000E+00   1.000E+00
 110  6.20195088   0.770   0.56547   3.72474   6.62607   0.27044   0.00000   0.000E+00   0.000E+00   1.000E+00
 111  6.20578039   0.770   0.56420   3.72498   6.62809   0.27863   0.00000   0.000E+00   0.000E+00   1.000E+00
 112  6.20957642   0.770   0.56292   3.72523   6.63011   0.28681   0.00000   0.000E+00   0.000E+00   1.000E+00
 113  6.21333955   0.770   0.56177   3.72548   6.63212   0.29488   0.00000   0.000E+00   0.000E+00   1.000E+00
 114  6.21707036   0.770   0.56076   3.72574   6.63410   0.30282   0.00000   0.000E+00   0.000E+00   1.000E+00
 115  6.22076940   0.770   0.55975   3.72600   6.63608   0.31076   0.00000   0.000E+00   0.000E+00   1.000E+00
 116  6.22443719   0.770   0.55874   3.72625   6.63806   0.31870   0.00000   0.000E+00   0.000E+00   1.000E+00
 117  6.22807427   0.770   0.55788   3.72652   6.64002   0.32651   0.00000   0.000E+00   0.000E+00   1.000E+00
 118  6.23168114   0.770   0.55713   3.72679   6.64197   0.33422   0.00000   0.000E+00   0.000E+00   1.000E+00
 119  6.23525830   0.770   0.55639   3.72705   6.64392   0.34194   0.00000   0.000E+00   0.000E+00   1.000E+00
 120  6.23880624   0.770   0.55564   3.72732   6.64586   0.34965   0.00000   0.000E+00   0.000E+00   1.000E+00
 121  6.24232542   0.770   0.55504   3.72760   6.64779   0.35724   0.00000   0.000E+00   0.000E+00   1.000E+00
 122  6.24581632   0.770   0.55452   3.72788   6.64971   0.36475   0.00000   0.000E+00   0.000E+00   1.000E+00
 123  6.24927939   0.770   0.55401   3.72816   6.65163   0.37226   0.00000   0.000E+00   0.000E+00   1.000E+00
 124  6.25271505   0.770   0.55350   3.72844   6.65354   0.37977   0.00000   0.000E+00   0.000E+00   1.000E+00
 125  6.25612376   0.770   0.55314   3.72873   6.65544   0.38716   0.00000   0.000E+00   0.000E+00   1.000E+00
 126  6.25950591   0.770   0.55286   3.72901   6.65733   0.39448   0.00000   0.000E+00   0.000E+00   1.000E+00
 127  6.26286193   0.770   0.55258   3.72930   6.65922   0.40181   0.00000   0.000E+00   0.000E+00   1.000E+00
 128  6.26619221   0.770   0.55231   3.72959   6.66111   0.40914   0.00000   0.000E+00   0.000E+00   1.000E+00
 129  6.26949716   0.770   0.55218   3.72989   6.66299   0.41635   0.00000   0.000E+00   0.000E+00   1.000E+00
 130  6.27277714   0.770   0.55211   3.73018   6.66485   0.42351   0.00000   0.000E+00   0.000E+00   1.000E+00
 131  6.27603253   0.770   0.55205   3.73048   6.66672   0.43067   0.00000   0.000E+00   0.000E+00   1.000E+00
 132  6.27926370   0.770   0.55199   3.73078   6.66859   0.43783   0.00000   0.000E+00   0.000E+00   1.000E+00
 133  6.28247102   0.770   0.55207   3.73108   6.67044   0.44487   0.00000   0.000E+00   0.000E+00   1.000E+00
 134  6.28565481   0.770   0.55220   3.73138   6.67229   0.45187   0.00000   0.000E+00   0.000E+00   1.000E+00
 135  6.28881544   0.770   0.55234   3.73169   6.67414   0.45887   0.00000   0.000E+00   0.000E+00   1.000E+00
 136  6.29195323   0.770   0.55247   3.73199   6.67598   0.46588   0.00000   0.000E+00   0.000E+00   1.000E+00
 137  6.29506852   0.770   0.55277   3.73229   6.67782   0.47276   0.00000   0.000E+00   0.000E+00   1.000E+00
 138  6.29816161   0.770   0.55310   3.73260   6.67965   0.47962   0.00000   0.000E+00   0.000E+00   1.000E+00
 139  6.30123284   0.770   0.55342   3.73290   6.68148   0.48649   0.00000   0.000E+00   0.000E+00   1.000E+00
 140  6.30428249   0.770   0.55375   3.73321   6.68332   0.49335   0.00000   0.000E+00   0.000E+00   1.000E+00
 141  6.30731088   0.770   0.55426   3.73352   6.68514   0.50009   0.00000   0.000E+00   0.000E+00   1.000E+00
 142  6.31031830   0.770   0.55477   3.73382   6.68696   0.50683   0.00000   0.000E+00   0.000E+00   1.000E+00
 143  6.31330504   0.770   0.55528   3.73413   6.68877   0.51357   0.00000   0.000E+00   0.000E+00   1.000E+00
 144  6.31627138   0.770   0.55582   3.73444   6.69059   0.52029   0.00000   0.000E+00   0.000E+00   1.000E+00
 145  6.31921759   0.770   0.55652   3.73475   6.69240   0.52691   0.00000   0.000E+00   0.000E+00   1.000E+00
 146  6.32214395   0.770   0.55723   3.73506   6.69421   0.53352   0.00000   0.000E+00   0.000E+00   1.000E+00
 147  6.32505072   0.770   0.55793   3.73538   6.69602   0.54014   0.00000   0.000E+00   0.000E+00   1.000E+00
 148  6.32793817   0.770   0.55871   3.73569   6.69782   0.54672   0.00000   0.000E+00   0.000E+00   1.000E+00
 149  6.33080655   0.770   0.55961   3.73601   6.69961   0.55324   0.00000   0.000E+00   0.000E+00   1.000E+00
 150  6.33365611   0.770   0.56051   3.73633   6.70141   0.55976   0.00000   0.000E+00   0.000E+00   1.000E+00
 151  6.33648709   0.770   0.56140   3.73665   6.70321   0.56628   0.00000   0.000E+00   0.000E+00   1.000E+00
 152  6.33929974   0.770   0.56245   3.73697   6.70500   0.57273   0.00000   0.000E+00   0.000E+00   1.000E+00
 153  6.34209429   0.770   0.56354   3.73730   6.70680   0.57916   0.00000   0.000E+00   0.000E+00   1.000E+00
 154  6.34487097   0.770   0.56463   3.73763   6.70859   0.58558   0.00000   0.000E+00   0.000E+00   1.000E+00
 155  6.34763001   0.770   0.56574   3.73796   6.71038   0.59200   0.00000   0.000E+00   0.000E+00   1.000E+00
 156  6.35037163   0.770   0.56703   3.73829   6.71217   0.59835   0.00000   0.000E+00   0.000E+00   1.000E+00
 157  6.35309606   0.770   0.56831   3.73863   6.71396   0.60469   0.00000   0.000E+00   0.000E+00   1.000E+00
 158  6.35580350   0.770   0.56959   3.73896   6.71574   0.61103   0.00000   0.000E+00   0.000E+00   1.000E+00
 159  6.35849417   0.770   0.57100   3.73930   6.71753   0.61733   0.00000   0.000E+00   0.000E+00   1.000E+00
 160  6.36116826   0.770   0.57250   3.73965   6.71932   0.62360   0.00000   0.000E+00   0.000E+00   1.000E+00
 161  6.36382600   0.770   0.57400   3.74000   6.72110   0.62987   0.00000   0.000E+00   0.000E+00   1.000E+00
 162  6.36646757   0.770   0.57552   3.74035   6.72289   0.63614   0.00000   0.000E+00   0.000E+00   1.000E+00
 163  6.36909317   0.770   0.57722   3.74072   6.72467   0.64233   0.00000   0.000E+00   0.000E+00   1.000E+00
 164  6.37170299   0.770   0.57892   3.74108   6.72645   0.64852   0.00000   0.000E+00   0.000E+00   1.000E+00
 165  6.37429722   0.770   0.58062   3.74144   6.72824   0.65472   0.00000   0.000E+00   0.000E+00   1.000E+00
 166  6.37687605   0.770   0.58245   3.74181   6.73002   0.66087   0.00000   0.000E+00   0.000E+00   1.000E+00
 167  6.37943965   0.770   0.58431   3.74218   6.73181   0.66701   0.00000   0.000E+00   0.000E+00   1.000E+00
 168  6.38198821   0.770   0.58617   3.74255   6.73360   0.67315   0.00000   0.000E+00   0.000E+00   1.000E+00
 169  6.38452190   0.770   0.58815   3.74293   6.73538   0.67926   0.00000   0.000E+00   0.000E+00   1.000E+00
 170  6.38704090   0.770   0.59022   3.74332   6.73717   0.68534   0.00000   0.000E+00   0.000E+00   1.000E+00
 171  6.38954537   0.770   0.59230   3.74371   6.73895   0.69143   0.00000   0.000E+00   0.000E+00   1.000E+00
 172  6.39203548   0.770   0.59444   3.74410   6.74074   0.69749   0.00000   0.000E+00   0.000E+00   1.000E+00
 173  6.39451139   0.770   0.59666   3.74450   6.74253   0.70354   0.00000   0.000E+00   0.000E+00   1.000E+00
 174  6.39697327   0.770   0.59889   3.74490   6.74433   0.70958   0.00000   0.000E+00   0.000E+00   1.000E+00
 175  6.39942127   0.770   0.60117   3.74530   6.74612   0.71561   0.00000   0.000E+00   0.000E+00   1.000E+00
 176  6.40185555   0.770   0.60353   3.74571   6.74791   0.72160   0.00000   0.000E+00   0.000E+00   1.000E+00
 177  6.40427626   0.770   0.60590   3.74612   6.74970   0.72760   0.00000   0.000E+00   0.000E+00   1.000E+00
 178  6.40668355   0.770   0.60834   3.74653   6.75150   0.73358   0.00000   0.000E+00   0.000E+00   1.000E+00
 179  6.40907758   0.770   0.61086   3.74695   6.75330   0.73954   0.00000   0.000E+00   0.000E+00   1.000E+00
 180  6.41145848   0.770   0.61338   3.74737   6.75510   0.74550   0.00000   0.000E+00   0.000E+00   1.000E+00
 181  6.41382639   0.770   0.61597   3.74780   6.75690   0.75144   0.00000   0.000E+00   0.000E+00   1.000E+00
 182  6.41618147   0.770   0.61860   3.74822   6.75871   0.75736   0.00000   0.000E+00   0.000E+00   1.000E+00
 183  6.41852384   0.770   0.62123   3.74865   6.76051   0.76329   0.00000   0.000E+00   0.000E+00   1.000E+00
 184  6.42085365   0.770   0.62394   3.74908   6.76232   0.76919   0.00000   0.000E+00   0.000E+00   1.000E+00
 185  6.42317103   0.770   0.62666   3.74952   6.76413   0.77509   0.00000   0.000E+00   0.000E+00   1.000E+00
 186  6.42547610   0.770   0.62941   3.74995   6.76594   0.78099   0.00000   0.000E+00   0.000E+00   1.000E+00
 187  6.42776901   0.770   0.63224   3.75040   6.76776   0.78686   0.00000   0.000E+00   0.000E+00   1.000E+00
 188  6.43004988   0.770   0.63507   3.75084   6.76957   0.79273   0.00000   0.000E+00   0.000E+00   1.000E+00
 189  6.43231882   0.770   0.63791   3.75128   6.77139   0.79859   0.00000   0.000E+00   0.000E+00   1.000E+00
 190  6.43457598   0.770   0.64076   3.75173   6.77321   0.80444   0.00000   0.000E+00   0.000E+00   1.000E+00
 191  6.43682147   0.770   0.64363   3.75217   6.77503   0.81028   0.00000   0.000E+00   0.000E+00   1.000E+00
 192  6.43905540   0.770   0.64658   3.75263   6.77686   0.81612   0.00000   0.000E+00   0.000E+00   1.000E+00
 193  6.44127790   0.770   0.64952   3.75308   6.77870   0.82196   0.00000   0.000E+00   0.000E+00   1.000E+00
 194  6.44348909   0.770   0.65247   3.75354   6.78053   0.82777   0.00000   0.000E+00   0.000E+00   1.000E+00
 195  6.44568908   0.770   0.65541   3.75400   6.78236   0.83357   0.00000   0.000E+00   0.000E+00   1.000E+00
 196  6.44787797   0.770   0.65836   3.75446   6.78419   0.83937   0.00000   0.000E+00   0.000E+00   1.000E+00
 197  6.45005590   0.770   0.66131   3.75491   6.78603   0.84517   0.00000   0.000E+00   0.000E+00   1.000E+00
 198  6.45222295   0.770   0.66426   3.75537   6.78787   0.85095   0.00000   0.000E+00   0.000E+00   1.000E+00
 199  6.45437924   0.770   0.66720   3.75584   6.78971   0.85673   0.00000   0.000E+00   0.000E+00   1.000E+00
 200  6.45652488   0.770   0.67014   3.75630   6.79156   0.86250   0.00000   0.000E+00   0.000E+00   1.000E+00
 201  6.45865997   0.770   0.67304   3.75676   6.79341   0.86826   0.00000   0.000E+00   0.000E+00   1.000E+00
 202  6.46078462   0.770   0.67595   3.75723   6.79526   0.87402   0.00000   0.000E+00   0.000E+00   1.000E+00
 203  6.46289892   0.770   0.67879   3.75769   6.79711   0.87976   0.00000   0.000E+00   0.000E+00   1.000E+00
 204  6.46500298   0.770   0.68163   3.75816   6.79896   0.88551   0.00000   0.000E+00   0.000E+00   1.000E+00
 205  6.46709690   0.770   0.68446   3.75863   6.80082   0.89124   0.00000   0.000E+00   0.000E+00   1.000E+00
 206  6.46918077   0.770   0.68729   3.75910   6.80267   0.89697   0.00000   0.000E+00   0.000E+00   1.000E+00
 207  6.47125468   0.770   0.69004   3.75957   6.80453   0.90269   0.00000   0.000E+00   0.000E+00   1.000E+00
 208  6.47331874   0.770   0.69278   3.76004   6.80639   0.90840   0.00000   0.000E+00   0.000E+00   1.000E+00
 209  6.47537304   0.770   0.69544   3.76052   6.80825   0.91410   0.00000   0.000E+00   0.000E+00   1.000E+00
 210  6.47741767   0.770   0.69810   3.76100   6.81011   0.91980   0.00000   0.000E+00   0.000E+00   1.000E+00
 211  6.47945271   0.770   0.70068   3.76147   6.81198   0.92549   0.00000   0.000E+00   0.000E+00   1.000E+00
 212  6.48147826   0.770   0.70326   3.76195   6.81385   0.93117   0.00000   0.000E+00   0.000E+00   1.000E+00
 213  6.48349441   0.770   0.70576   3.76243   6.81571   0.93685   0.00000   0.000E+00   0.000E+00   1.000E+00
 214  6.48550125   0.770   0.70824   3.76291   6.81758   0.94252   0.00000   0.000E+00   0.000E+00   1.000E+00
 215  6.48749885   0.770   0.71064   3.76340   6.81944   0.94819   0.00000   0.000E+00   0.000E+00   1.000E+00
 216  6.48948730   0.770   0.71301   3.76388   6.82131   0.95384   0.00000   0.000E+00   0.000E+00   1.000E+00
 217  6.49146670   0.770   0.71535   3.76437   6.82318   0.95949   0.00000   0.000E+00   0.000E+00   1.000E+00
 218  6.49343711   0.770   0.71763   3.76486   6.82505   0.96513   0.00000   0.000E+00   0.000E+00   1.000E+00
 219  6.49539862   0.770   0.71987   3.76535   6.82692   0.97076   0.00000   0.000E+00   0.000E+00   1.000E+00
 220  6.49735132   0.770   0.72204   3.76585   6.82879   0.97639   0.00000   0.000E+00   0.000E+00   1.000E+00
 221  6.49929527   0.770   0.72419   3.76634   6.83067   0.98201   0.00000   0.000E+00   0.000E+00   1.000E+00
 222  6.50123056   0.770   0.72626   3.76684   6.83253   0.98762   0.00000   0.000E+00   0.000E+00   1.000E+00
 223  6.50315726   0.770   0.72832   3.76734   6.83440   0.99322   0.00000   8.534E-05   0.000E+00   9.999E-01
 224  6.50507546   0.770   0.73035   3.76784   6.83626   0.99881   0.00000   6.596E-04   0.000E+00   9.993E-01
 225  6.50698522   0.770   0.73234   3.76835   6.83813   1.00440   0.00000   1.000E-03   0.000E+00   9.990E-01
 226  6.50888662   0.770   0.73427   3.76886   6.84000   1.00998   0.00000   1.000E-03   0.000E+00   9.990E-01
 227  6.51077973   0.770   0.73615   3.76937   6.84186   1.01555   0.00000   1.000E-03   0.000E+00   9.990E-01
 228  6.51266462   0.770   0.73802   3.76987   6.84373   1.02111   0.00000   1.000E-03   0.000E+00   9.990E-01
 229  6.51454137   0.770   0.73985   3.77039   6.84559   1.02666   0.00000   1.000E-03   0.000E+00   9.990E-01
 230  6.51641004   0.770   0.74165   3.77091   6.84746   1.03220   0.00000   1.000E-03   0.000E+00   9.990E-01
 231  6.51827071   0.770   0.74340   3.77143   6.84932   1.03773   0.00000   1.000E-03   0.000E+00   9.990E-01
 232  6.52012344   0.770   0.74514   3.77196   6.85118   1.04325   0.00000   1.000E-03   0.000E+00   9.990E-01
 233  6.52196830   0.770   0.74686   3.77248   6.85304   1.04877   0.00000   1.000E-03   0.000E+00   9.990E-01
 234  6.52380536   0.770   0.74852   3.77301   6.85489   1.05427   0.00000   1.000E-03   0.000E+00   9.990E-01
 235  6.52563467   0.770   0.75017   3.77354   6.85675   1.05976   0.00000   1.000E-03   0.000E+00   9.990E-01
 236  6.52745632   0.770   0.75179   3.77407   6.85860   1.06524   0.00000   1.000E-03   0.000E+00   9.990E-01
 237  6.52927035   0.770   0.75338   3.77461   6.86045   1.07072   0.00000   1.000E-03   0.000E+00   9.990E-01
 238  6.53107684   0.770   0.75495   3.77514   6.86230   1.07618   0.00000   1.000E-03   0.000E+00   9.990E-01
 239  6.53287585   0.770   0.75650   3.77569   6.86415   1.08164   0.00000   1.000E-03   0.000E+00   9.990E-01
 240  6.53466744   0.770   0.75802   3.77623   6.86599   1.08708   0.00000   1.000E-03   0.000E+00   9.990E-01
 241  6.53645166   0.770   0.75951   3.77678   6.86783   1.09251   0.00000   1.000E-03   0.000E+00   9.990E-01
 242  6.53822859   0.770   0.76098   3.77732   6.86967   1.09794   0.00000   1.000E-03   0.000E+00   9.990E-01
 243  6.53999827   0.770   0.76244   3.77787   6.87151   1.10335   0.00000   1.000E-03   0.000E+00   9.990E-01
 244  6.54176077   0.770   0.76388   3.77842   6.87335   1.10875   0.00000   1.000E-03   0.000E+00   9.990E-01
 245  6.54351615   0.770   0.76530   3.77898   6.87517   1.11414   0.00000   1.000E-03   0.000E+00   9.990E-01
 246  6.54526446   0.770   0.76669   3.77953   6.87700   1.11952   0.00000   1.000E-03   0.000E+00   9.990E-01
 247  6.54700576   0.770   0.76807   3.78009   6.87883   1.12489   0.00000   1.000E-03   0.000E+00   9.990E-01
 248  6.54874011   0.770   0.76943   3.78065   6.88066   1.13025   0.00000   1.000E-03   0.000E+00   9.990E-01
 249  6.55046756   0.770   0.77076   3.78121   6.88248   1.13559   0.00000   1.000E-03   0.000E+00   9.990E-01
 250  6.55218817   0.770   0.77208   3.78177   6.88429   1.14093   0.00000   1.000E-03   0.000E+00   9.990E-01
 251  6.55390198   0.770   0.77339   3.78233   6.88611   1.14626   0.00000   1.000E-03   0.000E+00   9.990E-01
 252  6.55560906   0.770   0.77469   3.78290   6.88793   1.15158   0.00000   1.000E-03   0.000E+00   9.990E-01
 253  6.55730946   0.770   0.77596   3.78346   6.88973   1.15688   0.00000   1.000E-03   0.000E+00   9.990E-01
 254  6.55900322   0.770   0.77722   3.78403   6.89154   1.16217   0.00000   1.000E-03   0.000E+00   9.990E-01
 255  6.56069040   0.770   0.77847   3.78461   6.89334   1.16745   0.00000   1.000E-03   0.000E+00   9.990E-01
 256  6.56237106   0.770   0.77970   3.78519   6.89514   1.17272   0.00000   1.000E-03   0.000E+00   9.990E-01
 257  6.56404523   0.770   0.78091   3.78576   6.89694   1.17798   0.00000   1.000E-03   0.000E+00   9.990E-01
 258  6.56571298   0.770   0.78211   3.78634   6.89873   1.18323   0.00000   1.000E-03   0.000E+00   9.990E-01
 259  6.56737435   0.770   0.78330   3.78693   6.90053   1.18849   0.00000   1.142E-03   0.000E+00   9.989E-01
 260  6.56902938   0.770   0.78448   3.78753   6.90234   1.19378   0.00000   1.672E-03   0.000E+00   9.983E-01
 261  6.57067814   0.770   0.78565   3.78813   6.90414   1.19906   0.00000   2.000E-03   0.000E+00   9.980E-01
 262  6.57232065   0.770   0.78682   3.78873   6.90594   1.20431   0.00000   2.000E-03   0.000E+00   9.980E-01
 263  6.57395698   0.770   0.78796   3.78934   6.90773   1.20955   0.00000   2.000E-03   0.000E+00   9.980E-01
 264  6.57558717   0.770   0.78910   3.78995   6.90953   1.21479   0.00000   2.000E-03   0.000E+00   9.980E-01
 265  6.57721126   0.770   0.79022   3.79056   6.91132   1.22001   0.00000   2.000E-03   0.000E+00   9.980E-01
 266  6.57882929   0.770   0.79133   3.79118   6.91311   1.22524   0.00000   2.000E-03   0.000E+00   9.980E-01
 267  6.58044133   0.770   0.79242   3.79181   6.91489   1.23044   0.00000   2.000E-03   0.000E+00   9.980E-01
 268  6.58204740   0.770   0.79351   3.79244   6.91668   1.23564   0.00000   2.000E-03   0.000E+00   9.980E-01
 269  6.58364755   0.770   0.79459   3.79307   6.91846   1.24083   0.00000   2.000E-03   0.000E+00   9.980E-01
 270  6.58524183   0.770   0.79565   3.79371   6.92023   1.24602   0.00000   2.000E-03   0.000E+00   9.980E-01
 271  6.58683028   0.770   0.79670   3.79436   6.92201   1.25120   0.00000   2.000E-03   0.000E+00   9.980E-01
 272  6.58841294   0.770   0.79775   3.79501   6.92378   1.25636   0.00000   2.000E-03   0.000E+00   9.980E-01
 273  6.58998985   0.770   0.79879   3.79566   6.92555   1.26152   0.00000   2.000E-03   0.000E+00   9.980E-01
 274  6.59156106   0.770   0.79981   3.79632   6.92732   1.26667   0.00000   2.000E-03   0.000E+00   9.976E-01
 275  6.59312661   0.770   0.80083   3.79698   6.92909   1.27182   0.00000   2.000E-03   0.000E+00   9.970E-01
 276  6.59468653   0.770   0.80184   3.79765   6.93085   1.27694   0.00000   2.468E-03   0.000E+00   9.970E-01
 277  6.59624087   0.770   0.80285   3.79832   6.93261   1.28206   0.00000   2.979E-03   0.000E+00   9.970E-01
 278  6.59778966   0.770   0.80384   3.79901   6.93436   1.28717   0.00000   3.000E-03   0.000E+00   9.970E-01
 279  6.59933295   0.770   0.80483   3.79969   6.93611   1.29227   0.00000   3.000E-03   0.000E+00   9.970E-01
 280  6.60087078   0.770   0.80580   3.80038   6.93787   1.29736   0.00000   3.000E-03   0.000E+00   9.970E-01
 281  6.60240318   0.770   0.80677   3.80107   6.93962   1.30246   0.00000   3.000E-03   0.000E+00   9.970E-01
 282  6.60393019   0.770   0.80773   3.80177   6.94136   1.30753   0.00000   3.000E-03   0.000E+00   9.970E-01
 283  6.60545185   0.770   0.80868   3.80247   6.94311   1.31260   0.00000   3.000E-03   0.000E+00   9.970E-01
 284  6.60696820   0.770   0.80963   3.80318   6.94484   1.31765   0.00000   3.000E-03   0.000E+00   9.966E-01
 285  6.60847928   0.770   0.81057   3.80389   6.94658   1.32270   0.00000   3.000E-03   0.000E+00   9.961E-01
 286  6.60998511   0.770   0.81149   3.80462   6.94831   1.32773   0.00000   3.374E-03   0.000E+00   9.960E-01
 287  6.61148574   0.770   0.81241   3.80534   6.95004   1.33277   0.00000   3.844E-03   0.000E+00   9.960E-01
 288  6.61298120   0.770   0.81333   3.80607   6.95176   1.33779   0.00000   4.000E-03   0.000E+00   9.960E-01
 289  6.61447154   0.770   0.81424   3.80681   6.95349   1.34280   0.00000   4.000E-03   0.000E+00   9.960E-01
 290  6.61595677   0.770   0.81514   3.80755   6.95522   1.34780   0.00000   4.000E-03   0.000E+00   9.960E-01
 291  6.61743694   0.770   0.81604   3.80830   6.95693   1.35279   0.00000   4.000E-03   0.000E+00   9.960E-01
 292  6.61891209   0.770   0.81692   3.80905   6.95865   1.35777   0.00000   4.000E-03   0.000E+00   9.959E-01
 293  6.62038224   0.770   0.81780   3.80982   6.96036   1.36274   0.00000   4.000E-03   0.000E+00   9.954E-01
 294  6.62184743   0.770   0.81868   3.81058   6.96207   1.36770   0.00000   4.028E-03   0.000E+00   9.950E-01
 295  6.62330770   0.770   0.81954   3.81136   6.96378   1.37265   0.00000   4.467E-03   0.000E+00   9.950E-01
 296  6.62476307   0.770   0.82040   3.81214   6.96548   1.37760   0.00000   4.906E-03   0.000E+00   9.950E-01
 297  6.62621358   0.770   0.82125   3.81294   6.96718   1.38252   0.00000   5.000E-03   0.000E+00   9.950E-01
 298  6.62765926   0.770   0.82210   3.81374   6.96888   1.38744   0.00000   5.000E-03   0.000E+00   9.950E-01
 299  6.62910015   0.770   0.82294   3.81455   6.97057   1.39235   0.00000   5.000E-03   0.000E+00   9.948E-01
 300  6.63053627   0.770   0.82378   3.81537   6.97226   1.39725   0.00000   5.000E-03   0.000E+00   9.944E-01
 301  6.63196765   0.770   0.82461   3.81619   6.97395   1.40215   0.00000   5.045E-03   0.000E+00   9.940E-01
 302  6.63339434   0.770   0.82542   3.81703   6.97564   1.40702   0.00000   5.462E-03   0.000E+00   9.940E-01
 303  6.63481635   0.770   0.82624   3.81787   6.97732   1.41189   0.00000   5.878E-03   0.000E+00   9.940E-01
 304  6.63623373   0.770   0.82705   3.81872   6.97899   1.41675   0.00000   6.000E-03   0.000E+00   9.940E-01
 305  6.63764649   0.770   0.82785   3.81958   6.98067   1.42160   0.00000   6.000E-03   0.000E+00   9.940E-01
 306  6.63905467   0.770   0.82865   3.82044   6.98234   1.42645   0.00000   6.105E-03   0.000E+00   9.939E-01
 307  6.64045830   0.770   0.82944   3.82131   6.98400   1.43127   0.00000   6.507E-03   0.000E+00   9.935E-01
 308  6.64185741   0.770   0.83023   3.82219   6.98567   1.43610   0.00000   6.908E-03   0.000E+00   9.931E-01
 309  6.64325203   0.770   0.83101   3.82309   6.98733   1.44090   0.00000   7.000E-03   0.000E+00   9.930E-01
 310  6.64464218   0.770   0.83178   3.82400   6.98899   1.44570   0.00000   7.000E-03   0.000E+00   9.930E-01
 311  6.64602789   0.770   0.83255   3.82491   6.99065   1.45049   0.00000   7.091E-03   0.000E+00   9.929E-01
 312  6.64740920   0.770   0.83331   3.82585   6.99230   1.45527   0.00000   7.477E-03   0.000E+00   9.925E-01
 313  6.64878613   0.770   0.83406   3.82678   6.99395   1.46005   0.00000   7.864E-03   0.000E+00   9.921E-01
 314  6.65015871   0.770   0.83481   3.82773   6.99559   1.46480   0.00000   8.000E-03   0.000E+00   9.920E-01
 315  6.65152696   0.770   0.83556   3.82869   6.99724   1.46954   0.00000   8.000E-03   0.000E+00   9.920E-01
 316  6.65289092   0.770   0.83630   3.82965   6.99888   1.47429   0.00000   8.004E-03   0.000E+00   9.920E-01
 317  6.65425060   0.770   0.83703   3.83063   7.00051   1.47900   0.00000   8.376E-03   0.000E+00   9.916E-01
 318  6.65560605   0.770   0.83776   3.83160   7.00215   1.48371   0.00000   8.749E-03   0.000E+00   9.913E-01
 319  6.65695727   0.770   0.83848   3.83258   7.00378   1.48842   0.00000   9.118E-03   0.000E+00   9.909E-01
 320  6.65830430   0.770   0.83920   3.83357   7.00540   1.49311   0.00000   9.483E-03   0.000E+00   9.905E-01
 321  6.65964717   0.770   0.83991   3.83456   7.00703   1.49779   0.00000   9.847E-03   0.000E+00   9.902E-01
 322  6.66098590   0.770   0.84062   3.83556   7.00865   1.50246   0.00000   1.000E-02   0.000E+00   9.900E-01
 323  6.66232052   0.770   0.84132   3.83655   7.01026   1.50712   0.00000   1.000E-02   0.000E+00   9.900E-01
 324  6.66365104   0.770   0.84202   3.83755   7.01188   1.51178   0.00000   1.000E-02   0.000E+00   9.900E-01
 325  6.66497751   0.770   0.84271   3.83856   7.01349   1.51641   0.00000   1.027E-02   0.000E+00   9.897E-01
 326  6.66629993   0.770   0.84339   3.83957   7.01509   1.52104   0.00000   1.062E-02   0.000E+00   9.894E-01
 327  6.66761834   0.770   0.84408   3.84058   7.01670   1.52567   0.00000   1.097E-02   0.000E+00   9.890E-01
 328  6.66893276   0.770   0.84474   3.84160   7.01830   1.53026   0.00000   1.131E-02   0.000E+00   9.887E-01
 329  6.67024321   0.770   0.84541   3.84262   7.01990   1.53486   0.00000   1.166E-02   0.000E+00   9.883E-01
 330  6.67154972   0.770   0.84608   3.84365   7.02150   1.53946   0.00000   1.200E-02   0.000E+00   9.880E-01
 331  6.67285231   0.770   0.84673   3.84468   7.02308   1.54402   0.00000   1.233E-02   0.000E+00   9.877E-01
 332  6.67415101   0.770   0.84739   3.84571   7.02467   1.54858   0.00000   1.267E-02   0.000E+00   9.873E-01
 333  6.67544583   0.770   0.84805   3.84674   7.02625   1.55314   0.00000   1.300E-02   0.000E+00   9.870E-01
 334  6.67673681   0.770   0.84868   3.84777   7.02783   1.55767   0.00000   1.333E-02   0.000E+00   9.867E-01
 335  6.67802396   0.770   0.84932   3.84880   7.02941   1.56220   0.00000   1.366E-02   0.000E+00   9.863E-01
 336  6.67930730   0.770   0.84996   3.84984   7.03099   1.56674   0.00000   1.398E-02   0.000E+00   9.860E-01
 337  6.68058687   0.770   0.85058   3.85086   7.03256   1.57123   0.00000   1.430E-02   0.000E+00   9.857E-01
 338  6.68186267   0.770   0.85120   3.85189   7.03413   1.57572   0.00000   1.462E-02   0.000E+00   9.854E-01
 339  6.68313474   0.770   0.85182   3.85292   7.03570   1.58022   0.00000   1.494E-02   0.000E+00   9.851E-01
 340  6.68440310   0.770   0.85243   3.85394   7.03726   1.58468   0.00000   1.551E-02   0.000E+00   9.845E-01
 341  6.68566776   0.770   0.85304   3.85497   7.03882   1.58914   0.00000   1.613E-02   0.000E+00   9.839E-01
 342  6.68692874   0.770   0.85365   3.85599   7.04038   1.59360   0.00000   1.675E-02   0.000E+00   9.832E-01
 343  6.68818608   0.770   0.85424   3.85701   7.04193   1.59803   0.00000   1.718E-02   0.000E+00   9.828E-01
 344  6.68943979   0.770   0.85484   3.85803   7.04347   1.60245   0.00000   1.749E-02   0.000E+00   9.825E-01
 345  6.69068989   0.770   0.85543   3.85904   7.04502   1.60687   0.00000   1.779E-02   0.000E+00   9.822E-01
 346  6.69193640   0.770   0.85601   3.86006   7.04657   1.61127   0.00000   1.818E-02   0.000E+00   9.818E-01
 347  6.69317934   0.770   0.85659   3.86106   7.04810   1.61565   0.00000   1.877E-02   0.000E+00   9.812E-01
 348  6.69441874   0.770   0.85716   3.86207   7.04964   1.62002   0.00000   1.936E-02   0.000E+00   9.806E-01
 349  6.69565461   0.770   0.85773   3.86308   7.05118   1.62440   0.00000   1.995E-02   0.000E+00   9.801E-01
 350  6.69688697   0.770   0.85829   3.86408   7.05270   1.62874   0.00000   2.026E-02   0.000E+00   9.797E-01
 351  6.69811585   0.770   0.85884   3.86508   7.05423   1.63308   0.00000   2.055E-02   0.000E+00   9.795E-01
 352  6.69934126   0.770   0.85940   3.86608   7.05575   1.63741   0.00000   2.083E-02   0.000E+00   9.792E-01
 353  6.70056322   0.770   0.85995   3.86708   7.05727   1.64173   0.00000   2.135E-02   0.000E+00   9.786E-01
 354  6.70178175   0.770   0.86048   3.86807   7.05878   1.64602   0.00000   2.219E-02   0.000E+00   9.778E-01
 355  6.70299687   0.770   0.86102   3.86906   7.06030   1.65031   0.00000   2.302E-02   0.000E+00   9.770E-01
 356  6.70420860   0.770   0.86156   3.87005   7.06181   1.65460   0.00000   2.386E-02   0.000E+00   9.761E-01
 357  6.70541696   0.770   0.86208   3.87103   7.06331   1.65886   0.00000   2.444E-02   0.000E+00   9.756E-01
 358  6.70662197   0.770   0.86260   3.87201   7.06482   1.66310   0.00000   2.498E-02   0.000E+00   9.750E-01
 359  6.70782364   0.770   0.86313   3.87299   7.06632   1.66735   0.00000   2.552E-02   0.000E+00   9.745E-01
 360  6.70902200   0.770   0.86364   3.87397   7.06782   1.67159   0.00000   2.606E-02   0.000E+00   9.739E-01
 361  6.71021706   0.770   0.86414   3.87494   7.06931   1.67579   0.00000   2.658E-02   0.000E+00   9.734E-01
 362  6.71140884   0.770   0.86464   3.87591   7.07080   1.67999   0.00000   2.710E-02   0.000E+00   9.729E-01
 363  6.71259736   0.770   0.86514   3.87688   7.07230   1.68419   0.00000   2.762E-02   0.000E+00   9.724E-01
 364  6.71378264   0.770   0.86563   3.87785   7.07378   1.68838   0.00000   2.819E-02   0.000E+00   9.718E-01
 365  6.71496469   0.770   0.86611   3.87880   7.07526   1.69252   0.00000   2.895E-02   0.000E+00   9.711E-01
 366  6.71614353   0.770   0.86660   3.87976   7.07674   1.69667   0.00000   2.970E-02   0.000E+00   9.703E-01
 367  6.71731918   0.770   0.86708   3.88071   7.07822   1.70081   0.00000   3.045E-02   0.000E+00   9.696E-01
 368  6.71849165   0.770   0.86755   3.88167   7.07970   1.70494   0.00000   3.125E-02   0.000E+00   9.687E-01
 369  6.71966097   0.770   0.86801   3.88261   7.08117   1.70903   0.00000   3.221E-02   0.000E+00   9.678E-01
 370  6.72082715   0.770   0.86847   3.88356   7.08264   1.71312   0.00000   3.317E-02   0.000E+00   9.668E-01
 371  6.72199021   0.770   0.86892   3.88450   7.08411   1.71720   0.00000   3.413E-02   0.000E+00   9.659E-01
 372  6.72315016   0.770   0.86938   3.88545   7.08558   1.72128   0.00000   3.506E-02   0.000E+00   9.649E-01
 373  6.72430702   0.770   0.86982   3.88638   7.08703   1.72531   0.00000   3.575E-02   0.000E+00   9.642E-01
 374  6.72546080   0.770   0.87025   3.88731   7.08849   1.72933   0.00000   3.644E-02   0.000E+00   9.636E-01
 375  6.72661153   0.770   0.87069   3.88825   7.08994   1.73335   0.00000   3.713E-02   0.000E+00   9.629E-01
 376  6.72775922   0.770   0.87112   3.88918   7.09140   1.73738   0.00000   3.781E-02   0.000E+00   9.622E-01
 377  6.72890388   0.770   0.87154   3.89010   7.09285   1.74135   0.00000   3.879E-02   0.000E+00   9.612E-01
 378  6.73004554   0.770   0.87195   3.89102   7.09430   1.74530   0.00000   3.988E-02   0.000E+00   9.601E-01
 379  6.73118420   0.770   0.87236   3.89193   7.09574   1.74926   0.00000   4.097E-02   0.000E+00   9.590E-01
 380  6.73231988   0.770   0.87276   3.89285   7.09719   1.75321   0.00000   4.205E-02   0.000E+00   9.579E-01
 381  6.73345260   0.770   0.87317   3.89377   7.09864   1.75715   0.00000   4.316E-02   0.000E+00   9.568E-01
 382  6.73458238   0.770   0.87355   3.89467   7.10008   1.76103   0.00000   4.439E-02   0.000E+00   9.556E-01
 383  6.73570922   0.770   0.87393   3.89557   7.10152   1.76490   0.00000   4.562E-02   0.000E+00   9.544E-01
 384  6.73683315   0.770   0.87431   3.89648   7.10296   1.76877   0.00000   4.685E-02   0.000E+00   9.532E-01
 385  6.73795418   0.770   0.87469   3.89738   7.10440   1.77264   0.00000   4.807E-02   0.000E+00   9.519E-01
 386  6.73907232   0.770   0.87507   3.89828   7.10585   1.77649   0.00000   4.928E-02   0.000E+00   9.507E-01
 387  6.74018758   0.770   0.87541   3.89916   7.10728   1.78027   0.00000   5.043E-02   0.000E+00   9.493E-01
 388  6.74130000   0.770   0.87576   3.90005   7.10872   1.78404   0.00000   5.157E-02   0.000E+00   9.480E-01
 389  6.74240957   0.770   0.87611   3.90093   7.11016   1.78782   0.00000   5.271E-02   0.000E+00   9.467E-01
 390  6.74351631   0.770   0.87646   3.90182   7.11160   1.79159   0.00000   5.386E-02   0.000E+00   9.453E-01
 391  6.74462024   0.770   0.87681   3.90270   7.11304   1.79537   0.00000   5.500E-02   0.000E+00   9.440E-01
 392  6.74828420   0.770   0.87784   3.90559   7.11786   1.80756   0.00000   6.081E-02   0.000E+00   9.388E-01
 393  6.75191752   0.770   0.87882   3.90846   7.12271   1.81959   0.00000   6.672E-02   0.000E+00   9.331E-01
 394  6.75552068   0.770   0.87967   3.91127   7.12762   1.83121   0.00000   7.290E-02   0.000E+00   9.264E-01
 395  6.75909420   0.770   0.88045   3.91405   7.13255   1.84253   0.00000   7.997E-02   0.000E+00   9.192E-01
 396  6.76263855   0.770   0.88107   3.91675   7.13752   1.85326   0.00000   8.880E-02   0.000E+00   9.109E-01
 397  6.76615422   0.770   0.88161   3.91940   7.14252   1.86367   0.00000   9.828E-02   0.000E+00   9.016E-01
 398  6.76964165   0.770   0.88193   3.92196   7.14755   1.87335   0.00000   1.093E-01   0.000E+00   8.901E-01
 399  6.77310130   0.770   0.88217   3.92447   7.15257   1.88280   0.00000   1.209E-01   9.817E-05   8.781E-01
 400  6.77653360   0.770   0.88212   3.92685   7.15753   1.89140   0.00000   1.349E-01   5.631E-04   8.641E-01
 401  6.77993900   0.770   0.88205   3.92922   7.16247   1.89994   0.00000   1.490E-01   1.000E-03   8.500E-01
 402  6.78331790   0.770   0.88158   3.93142   7.16716   1.90758   0.00000   1.651E-01   1.000E-03   8.339E-01
 403  6.78667071   0.770   0.88111   3.93361   7.17185   1.91523   0.00000   1.813E-01   1.000E-03   8.177E-01
 404  6.78999784   0.770   0.88025   3.93563   7.17620   1.92216   0.00000   1.984E-01   1.360E-03   8.002E-01
 405  6.79329967   0.770   0.87931   3.93761   7.18049   1.92896   0.00000   2.157E-01   1.792E-03   7.825E-01
 406  6.79657659   0.770   0.87816   3.93949   7.18456   1.93538   0.00000   2.332E-01   2.000E-03   7.648E-01
 407  6.79982896   0.770   0.87681   3.94126   7.18843   1.94145   0.00000   2.510E-01   2.000E-03   7.470E-01
 408  6.80305717   0.770   0.87537   3.94298   7.19218   1.94733   0.00000   2.685E-01   2.258E-03   7.295E-01
 409  6.80626155   0.770   0.87379   3.94459   7.19574   1.95290   0.00000   2.853E-01   2.933E-03   7.127E-01
 410  6.80944246   0.770   0.87201   3.94610   7.19912   1.95811   0.00000   3.020E-01   3.000E-03   6.953E-01
 411  6.81260024   0.770   0.87008   3.94754   7.20238   1.96306   0.00000   3.190E-01   3.578E-03   6.774E-01
 412  6.81573523   0.770   0.86799   3.94889   7.20552   1.96775   0.00000   3.366E-01   4.000E-03   6.594E-01
 413  6.81884775   0.770   0.86574   3.95017   7.20856   1.97217   0.00000   3.547E-01   4.000E-03   6.413E-01
 414  6.82193813   0.770   0.86333   3.95136   7.21148   1.97631   0.00000   3.726E-01   4.703E-03   6.227E-01
 415  6.82500666   0.770   0.86076   3.95248   7.21431   1.98021   0.00000   3.908E-01   5.000E-03   6.042E-01
 416  6.82805367   0.770   0.85803   3.95351   7.21701   1.98385   0.00019   4.099E-01   5.000E-03   5.848E-01
 417  6.83107945   0.770   0.85514   3.95446   7.21960   1.98724   0.00131   4.280E-01   5.613E-03   5.660E-01
 418  6.83408430   0.770   0.85212   3.95534   7.22209   1.99044   0.00207   4.469E-01   6.000E-03   5.471E-01
 419  6.83706849   0.770   0.84894   3.95614   7.22442   1.99332   0.00335   4.660E-01   6.000E-03   5.280E-01
 420  6.84003232   0.770   0.84564   3.95687   7.22666   1.99603   0.00415   4.847E-01   6.000E-03   5.085E-01
 421  6.84297607   0.770   0.84221   3.95753   7.22884   1.99855   0.00415   5.039E-01   6.902E-03   4.892E-01
 422  6.84589999   0.770   0.83866   3.95812   7.23090   2.00088   0.00830   5.225E-01   7.000E-03   4.705E-01
 423  6.84880436   0.770   0.83500   3.95863   7.23284   2.00298   0.00830   5.419E-01   7.000E-03   4.516E-01
 424  6.85168943   0.770   0.83125   3.95908   7.23471   2.00494   0.00830   5.609E-01   7.000E-03   4.321E-01
 425  6.85455547   0.769   0.82743   3.95947   7.23638   2.00653   0.01344   5.799E-01   7.000E-03   4.131E-01
 426  6.85740271   0.769   0.82352   3.95980   7.23805   2.00813   0.01678   5.982E-01   7.000E-03   3.948E-01
 427  6.86023141   0.769   0.81955   3.96007   7.23963   2.00961   0.02074   6.168E-01   7.000E-03   3.762E-01
 428  6.86304181   0.769   0.81552   3.96028   7.24110   2.01095   0.02523   6.348E-01   7.000E-03   3.582E-01
 429  6.86583413   0.769   0.81147   3.96044   7.24249   2.01216   0.02915   6.529E-01   7.000E-03   3.401E-01
 430  6.86860862   0.769   0.80739   3.96055   7.24379   2.01323   0.03355   6.703E-01   7.000E-03   3.228E-01
 431  6.87136549   0.769   0.80329   3.96061   7.24500   2.01420   0.03768   6.875E-01   7.000E-03   3.055E-01
 432  6.87410498   0.769   0.79919   3.96064   7.24612   2.01505   0.04252   7.049E-01   7.000E-03   2.889E-01
 433  6.87682729   0.769   0.79511   3.96062   7.24718   2.01578   0.04389   7.213E-01   7.000E-03   2.717E-01
 434  6.87953264   0.769   0.79105   3.96057   7.24816   2.01643   0.04879   7.376E-01   7.000E-03   2.554E-01
 435  6.88222125   0.769   0.78703   3.96048   7.24908   2.01700   0.05185   7.538E-01   7.000E-03   2.402E-01
 436  6.88489331   0.769   0.78304   3.96036   7.24992   2.01749   0.05600   7.688E-01   6.000E-03   2.246E-01
 437  6.88754903   0.769   0.77910   3.96021   7.25072   2.01789   0.05736   7.836E-01   6.000E-03   2.097E-01
 438  6.89018862   0.769   0.77523   3.96004   7.25144   2.01824   0.06131   7.980E-01   6.000E-03   1.960E-01
 439  6.89281225   0.769   0.77142   3.95986   7.25211   2.01852   0.06429   8.116E-01   6.000E-03   1.816E-01
 440  6.89542013   0.769   0.76769   3.95965   7.25272   2.01874   0.06913   8.256E-01   6.000E-03   1.684E-01
 441  6.89801245   0.769   0.76405   3.95943   7.25322   2.01881   0.06913   8.386E-01   6.000E-03   1.554E-01
 442  6.90058938   0.769   0.76050   3.95918   7.25373   2.01891   0.07267   8.511E-01   6.000E-03   1.429E-01
 443  6.90315112   0.769   0.75703   3.95893   7.25420   2.01896   0.07397   8.629E-01   6.000E-03   1.311E-01
 444  6.90569783   0.769   0.75366   3.95867   7.25463   2.01899   0.07483   8.744E-01   5.000E-03   1.198E-01
 445  6.90822969   0.769   0.75039   3.95839   7.25502   2.01897   0.07812   8.852E-01   5.000E-03   1.089E-01
 446  6.91074688   0.769   0.74723   3.95812   7.25534   2.01888   0.08013   8.959E-01   5.000E-03   9.885E-02
 447  6.91324956   0.769   0.74417   3.95784   7.25566   2.01880   0.08227   9.063E-01   5.000E-03   8.892E-02
 448  6.91573791   0.769   0.74123   3.95755   7.25594   2.01869   0.08227   9.153E-01   5.000E-03   8.002E-02
 449  6.91821207   0.769   0.73839   3.95727   7.25620   2.01857   0.08641   9.241E-01   5.000E-03   7.151E-02
 450  6.92067223   0.769   0.73567   3.95698   7.25642   2.01841   0.08641   9.325E-01   5.000E-03   6.308E-02
 451  6.92311852   0.769   0.73307   3.95670   7.25661   2.01823   0.08641   9.398E-01   5.000E-03   5.544E-02
 452  6.92555111   0.769   0.73057   3.95642   7.25679   2.01806   0.08641   9.472E-01   4.953E-03   4.845E-02
 453  6.92797016   0.769   0.72821   3.95615   7.25693   2.01788   0.08775   9.537E-01   4.000E-03   4.193E-02
 454  6.93037580   0.769   0.72595   3.95588   7.25706   2.01768   0.09125   9.603E-01   4.000E-03   3.565E-02
 455  6.93276819   0.769   0.72380   3.95561   7.25717   2.01747   0.09125   9.659E-01   4.000E-03   2.982E-02
 456  6.93514747   0.769   0.72176   3.95536   7.25726   2.01726   0.09125   9.712E-01   4.000E-03   2.454E-02
 457  6.93751379   0.769   0.71984   3.95511   7.25734   2.01705   0.09125   9.763E-01   4.000E-03   1.970E-02
 458  6.93986729   0.769   0.71803   3.95486   7.25740   2.01684   0.09125   9.811E-01   4.000E-03   1.524E-02
 459  6.94220810   0.769   0.71633   3.95463   7.25744   2.01663   0.09125   9.851E-01   4.000E-03   1.117E-02
 460  6.94453637   0.769   0.71473   3.95440   7.25748   2.01642   0.09125   9.886E-01   4.000E-03   7.461E-03
 461  6.94685221   0.769   0.71323   3.95419   7.25750   2.01622   0.09125   9.920E-01   4.000E-03   4.058E-03
 462  6.94915578   0.769   0.71182   3.95398   7.25751   2.01602   0.09125   9.958E-01   4.000E-03   9.603E-04
 463  6.95144719   0.769   0.71053   3.95379   7.25752   2.01581   0.09125   9.980E-01   4.000E-03  -1.741E-03
 464  6.95372657   0.769   0.70933   3.95360   7.25751   2.01562   0.09125   1.000E+00   3.653E-03  -4.195E-03
 465  6.95599405   0.769   0.70818   3.95341   7.25750   2.01542   0.09125   1.003E+00   3.013E-03  -6.454E-03
 466  6.95824976   0.769   0.70718   3.95325   7.25748   2.01524   0.09125   1.005E+00   3.000E-03  -8.378E-03
 467  6.96049381   0.769   0.70621   3.95309   7.25746   2.01506   0.09125   1.007E+00   3.000E-03  -1.018E-02
 468  6.96272632   0.769   0.70535   3.95294   7.25743   2.01488   0.09125   1.008E+00   3.000E-03  -1.161E-02
 469  6.96494742   0.769   0.70453   3.95280   7.25740   2.01471   0.09125   1.009E+00   3.000E-03  -1.293E-02
 470  6.96715721   0.769   0.70384   3.95267   7.25736   2.01456   0.09125   1.011E+00   3.000E-03  -1.392E-02
 471  6.96935582   0.769   0.70314   3.95254   7.25732   2.01441   0.09125   1.012E+00   3.000E-03  -1.490E-02
 472  6.97154335   0.769   0.70259   3.95243   7.25728   2.01427   0.09125   1.013E+00   3.000E-03  -1.550E-02
 473  6.97371992   0.769   0.70206   3.95232   7.25724   2.01413   0.09125   1.013E+00   3.000E-03  -1.606E-02
 474  6.97588564   0.769   0.70153   3.95222   7.25720   2.01400   0.09125   1.014E+00   3.000E-03  -1.661E-02
 475  6.97804061   0.769   0.70116   3.95213   7.25715   2.01388   0.09125   1.014E+00   3.000E-03  -1.679E-02
 476  6.98018494   0.769   0.70080   3.95205   7.25710   2.01377   0.09125   1.015E+00   3.000E-03  -1.698E-02
 477  6.98231873   0.769   0.70044   3.95197   7.25705   2.01365   0.09125   1.015E+00   3.000E-03  -1.717E-02
 478  6.98444209   0.769   0.70013   3.95189   7.25701   2.01355   0.09125   1.015E+00   3.000E-03  -1.724E-02
 479  6.98655512   0.769   0.69995   3.95184   7.25696   2.01347   0.09125   1.015E+00   3.000E-03  -1.704E-02
 480  6.98865792   0.769   0.69977   3.95179   7.25692   2.01340   0.09125   1.015E+00   3.000E-03  -1.684E-02
 481  6.99075059   0.769   0.69959   3.95174   7.25687   2.01332   0.09125   1.014E+00   3.000E-03  -1.665E-02
 482  6.99283322   0.769   0.69941   3.95169   7.25683   2.01324   0.09125   1.014E+00   3.000E-03  -1.645E-02
 483  6.99490591   0.769   0.69923   3.95163   7.25678   2.01317   0.09125   1.014E+00   3.000E-03  -1.625E-02
 484  6.99696876   0.769   0.69917   3.95160   7.25674   2.01312   0.09125   1.014E+00   2.909E-03  -1.594E-02
 485  6.99902185   0.769   0.69914   3.95157   7.25670   2.01308   0.09125   1.013E+00   2.788E-03  -1.559E-02
 486  7.00106529   0.769   0.69911   3.95155   7.25666   2.01303   0.09125   1.013E+00   2.668E-03  -1.524E-02
 487  7.00309915   0.769   0.69908   3.95152   7.25663   2.01299   0.09125   1.013E+00   2.547E-03  -1.489E-02
 488  7.00512354   0.769   0.69905   3.95149   7.25659   2.01295   0.09125   1.012E+00   2.427E-03  -1.454E-02
 489  7.00713853   0.769   0.69902   3.95147   7.25655   2.01291   0.09125   1.012E+00   2.306E-03  -1.419E-02
 490  7.00914421   0.769   0.69899   3.95144   7.25651   2.01286   0.09125   1.012E+00   2.186E-03  -1.384E-02
 491  7.01114068   0.769   0.69897   3.95141   7.25647   2.01282   0.09125   1.011E+00   2.065E-03  -1.349E-02
 492  7.01312801   0.769   0.69898   3.95140   7.25644   2.01279   0.09125   1.011E+00   2.000E-03  -1.315E-02
 493  7.01510629   0.769   0.69903   3.95139   7.25641   2.01278   0.09125   1.011E+00   2.000E-03  -1.283E-02
 494  7.01707559   0.769   0.69909   3.95138   7.25638   2.01276   0.09125   1.010E+00   2.000E-03  -1.251E-02
 495  7.01903601   0.769   0.69914   3.95137   7.25636   2.01274   0.09125   1.010E+00   2.000E-03  -1.219E-02
 496  7.02098762   0.769   0.69920   3.95137   7.25633   2.01273   0.09125   1.010E+00   2.000E-03  -1.187E-02
 497  7.02293050   0.769   0.69926   3.95136   7.25631   2.01271   0.09125   1.009E+00   2.000E-03  -1.155E-02
 498  7.02486472   0.769   0.69931   3.95135   7.25628   2.01270   0.09125   1.009E+00   2.000E-03  -1.122E-02
 499  7.02679037   0.769   0.69937   3.95135   7.25625   2.01268   0.09125   1.009E+00   2.000E-03  -1.090E-02
 500  7.02870751   0.769   0.69943   3.95134   7.25623   2.01266   0.09125   1.008E+00   2.000E-03  -1.058E-02
 501  7.03061624   0.769   0.69948   3.95133   7.25620   2.01265   0.09125   1.008E+00   2.000E-03  -1.026E-02
 502  7.03251661   0.769   0.69954   3.95132   7.25617   2.01263   0.09125   1.008E+00   2.000E-03  -9.939E-03
 503  7.03440869   0.769   0.69959   3.95132   7.25615   2.01262   0.09125   1.007E+00   2.000E-03  -9.617E-03
 504  7.03629258   0.769   0.69965   3.95131   7.25612   2.01260   0.09125   1.007E+00   2.000E-03  -9.298E-03
 505  7.03816832   0.769   0.69972   3.95131   7.25610   2.01260   0.09125   1.007E+00   2.000E-03  -9.106E-03
 506  7.04003600   0.769   0.69979   3.95131   7.25609   2.01259   0.09125   1.007E+00   2.000E-03  -8.915E-03
 507  7.04189568   0.769   0.69986   3.95131   7.25607   2.01259   0.09125   1.007E+00   2.000E-03  -8.724E-03
 508  7.04374743   0.769   0.69993   3.95131   7.25606   2.01258   0.09125   1.006E+00   2.000E-03  -8.533E-03
 509  7.04559132   0.769   0.69999   3.95131   7.25604   2.01258   0.09125   1.006E+00   2.000E-03  -8.342E-03
 510  7.04742742   0.769   0.70006   3.95131   7.25602   2.01258   0.09125   1.006E+00   2.000E-03  -8.150E-03
 511  7.04925578   0.769   0.70013   3.95131   7.25601   2.01257   0.09125   1.006E+00   2.000E-03  -7.959E-03
 512  7.05107648   0.769   0.70020   3.95131   7.25599   2.01257   0.09125   1.006E+00   2.000E-03  -7.768E-03
 513  7.05288958   0.769   0.70027   3.95131   7.25598   2.01257   0.09125   1.006E+00   2.000E-03  -7.577E-03
 514  7.05469514   0.769   0.70034   3.95132   7.25596   2.01256   0.09125   1.005E+00   2.000E-03  -7.386E-03
 515  7.05649323   0.769   0.70040   3.95132   7.25594   2.01256   0.09125   1.005E+00   2.000E-03  -7.194E-03
 516  7.05828390   0.769   0.70047   3.95132   7.25593   2.01255   0.09125   1.005E+00   2.000E-03  -7.003E-03
 517  7.06006722   0.769   0.70054   3.95132   7.25591   2.01255   0.09125   1.005E+00   2.000E-03  -6.812E-03
 518  7.06184324   0.769   0.70061   3.95132   7.25589   2.01255   0.09125   1.005E+00   2.000E-03  -6.621E-03
 519  7.06361203   0.768   0.70068   3.95132   7.25588   2.01254   0.09125   1.005E+00   2.000E-03  -6.429E-03
 520  7.06537365   0.768   0.70075   3.95132   7.25586   2.01254   0.09125   1.004E+00   2.000E-03  -6.238E-03
 521  7.06712815   0.768   0.70082   3.95132   7.25585   2.01254   0.09125   1.004E+00   2.000E-03  -6.047E-03
 522  7.06887559   0.768   0.70088   3.95132   7.25583   2.01253   0.09125   1.004E+00   2.000E-03  -5.856E-03
 523  7.07061603   0.768   0.70095   3.95132   7.25582   2.01253   0.09119   1.004E+00   1.988E-03  -5.701E-03
 524  7.07234952   0.768   0.70100   3.95132   7.25581   2.01253   0.09102   1.004E+00   1.952E-03  -5.615E-03
 525  7.07407612   0.768   0.70104   3.95132   7.25580   2.01253   0.09085   1.004E+00   1.916E-03  -5.530E-03
 526  7.07579588   0.768   0.70109   3.95132   7.25579   2.01253   0.09067   1.004E+00   1.881E-03  -5.445E-03
 527  7.07750886   0.768   0.70114   3.95132   7.25578   2.01254   0.09050   1.004E+00   1.845E-03  -5.359E-03
 528  7.07921511   0.768   0.70119   3.95133   7.25578   2.01254   0.09033   1.004E+00   1.809E-03  -5.274E-03
 529  7.08091468   0.768   0.70124   3.95133   7.25577   2.01254   0.09015   1.004E+00   1.774E-03  -5.189E-03
 530  7.08260763   0.768   0.70129   3.95133   7.25576   2.01254   0.08998   1.003E+00   1.738E-03  -5.103E-03
 531  7.08429400   0.768   0.70134   3.95133   7.25575   2.01254   0.08981   1.003E+00   1.702E-03  -5.018E-03
 532  7.08597385   0.768   0.70138   3.95133   7.25574   2.01254   0.08964   1.003E+00   1.666E-03  -4.933E-03
 533  7.08764723   0.768   0.70143   3.95133   7.25574   2.01254   0.08946   1.003E+00   1.631E-03  -4.847E-03
 534  7.08931419   0.768   0.70148   3.95133   7.25573   2.01255   0.08929   1.003E+00   1.595E-03  -4.762E-03
 535  7.09097477   0.768   0.70153   3.95133   7.25572   2.01255   0.08912   1.003E+00   1.559E-03  -4.677E-03
 536  7.09262902   0.768   0.70158   3.95133   7.25571   2.01255   0.08894   1.003E+00   1.524E-03  -4.591E-03
 537  7.09427700   0.768   0.70163   3.95134   7.25570   2.01255   0.08877   1.003E+00   1.488E-03  -4.506E-03
 538  7.09591875   0.768   0.70168   3.95134   7.25569   2.01255   0.08860   1.003E+00   1.452E-03  -4.421E-03
 539  7.09755431   0.768   0.70172   3.95134   7.25569   2.01255   0.08843   1.003E+00   1.416E-03  -4.335E-03
 540  7.09918374   0.768   0.70177   3.95134   7.25568   2.01255   0.08825   1.003E+00   1.381E-03  -4.250E-03
 541  7.10080708   0.768   0.70182   3.95134   7.25567   2.01256   0.08808   1.003E+00   1.345E-03  -4.165E-03
 542  7.10242437   0.768   0.70187   3.95134   7.25566   2.01256   0.08791   1.003E+00   1.309E-03  -4.079E-03
 543  7.10403567   0.768   0.70192   3.95134   7.25565   2.01256   0.08773   1.003E+00   1.274E-03  -3.994E-03
 544  7.10564100   0.768   0.70197   3.95134   7.25564   2.01256   0.08756   1.002E+00   1.238E-03  -3.909E-03
 545  7.10724043   0.768   0.70201   3.95134   7.25564   2.01256   0.08739   1.002E+00   1.202E-03  -3.823E-03
 546  7.10883398   0.768   0.70206   3.95135   7.25563   2.01256   0.08722   1.002E+00   1.167E-03  -3.738E-03
 547  7.11042171   0.768   0.70211   3.95135   7.25562   2.01256   0.08704   1.002E+00   1.131E-03  -3.653E-03
 548  7.11200366   0.768   0.70216   3.95135   7.25561   2.01257   0.08687   1.002E+00   1.095E-03  -3.567E-03
 549  7.11357987   0.768   0.70221   3.95135   7.25560   2.01257   0.08670   1.002E+00   1.059E-03  -3.482E-03
 550  7.11515037   0.768   0.70226   3.95135   7.25560   2.01257   0.08652   1.002E+00   1.024E-03  -3.397E-03
 551  7.11671522   0.768   0.70230   3.95135   7.25559   2.01257   0.08641   1.002E+00   1.000E-03  -3.329E-03
 552  7.11827444   0.768   0.70233   3.95135   7.25558   2.01257   0.08641   1.002E+00   1.000E-03  -3.294E-03
 553  7.11982809   0.768   0.70236   3.95135   7.25558   2.01258   0.08641   1.002E+00   1.000E-03  -3.260E-03
 554  7.12137621   0.768   0.70239   3.95135   7.25558   2.01258   0.08641   1.002E+00   1.000E-03  -3.226E-03
 555  7.12291882   0.768   0.70242   3.95135   7.25557   2.01258   0.08641   1.002E+00   1.000E-03  -3.192E-03
 556  7.12445597   0.768   0.70245   3.95136   7.25557   2.01259   0.08641   1.002E+00   1.000E-03  -3.158E-03
 557  7.12598770   0.768   0.70248   3.95136   7.25557   2.01259   0.08641   1.002E+00   1.000E-03  -3.124E-03
 558  7.12751405   0.768   0.70251   3.95136   7.25556   2.01259   0.08641   1.002E+00   1.000E-03  -3.089E-03
 559  7.12903506   0.768   0.70254   3.95136   7.25556   2.01260   0.08641   1.002E+00   1.000E-03  -3.055E-03
 560  7.13055075   0.768   0.70257   3.95136   7.25555   2.01260   0.08641   1.002E+00   1.000E-03  -3.021E-03
 561  7.13206117   0.768   0.70260   3.95136   7.25555   2.01261   0.08641   1.002E+00   1.000E-03  -2.987E-03
 562  7.13356636   0.768   0.70263   3.95136   7.25555   2.01261   0.08641   1.002E+00   1.000E-03  -2.953E-03
 563  7.13506635   0.768   0.70265   3.95136   7.25554   2.01261   0.08641   1.002E+00   1.000E-03  -2.919E-03
 564  7.13656118   0.768   0.70268   3.95136   7.25554   2.01262   0.08641   1.002E+00   1.000E-03  -2.884E-03
 565  7.13805087   0.768   0.70271   3.95136   7.25553   2.01262   0.08641   1.002E+00   1.000E-03  -2.850E-03
 566  7.13953548   0.768   0.70274   3.95136   7.25553   2.01262   0.08641   1.002E+00   1.000E-03  -2.816E-03
 567  7.14101503   0.768   0.70277   3.95137   7.25553   2.01263   0.08641   1.002E+00   1.000E-03  -2.782E-03
 568  7.14248955   0.768   0.70280   3.95137   7.25552   2.01263   0.08641   1.002E+00   1.000E-03  -2.748E-03
 569  7.14395909   0.768   0.70283   3.95137   7.25552   2.01263   0.08641   1.002E+00   1.000E-03  -2.714E-03
 570  7.14542367   0.768   0.70286   3.95137   7.25552   2.01264   0.08641   1.002E+00   1.000E-03  -2.680E-03
 571  7.14688333   0.768   0.70289   3.95137   7.25551   2.01264   0.08641   1.002E+00   1.000E-03  -2.645E-03
 572  7.14833810   0.768   0.70292   3.95137   7.25551   2.01264   0.08641   1.001E+00   1.000E-03  -2.611E-03
 573  7.14978801   0.768   0.70295   3.95137   7.25550   2.01265   0.08641   1.001E+00   1.000E-03  -2.577E-03
 574  7.15123309   0.768   0.70298   3.95137   7.25550   2.01265   0.08641   1.001E+00   1.000E-03  -2.543E-03
 575  7.15267339   0.768   0.70301   3.95137   7.25550   2.01265   0.08641   1.001E+00   1.000E-03  -2.509E-03
 576  7.15410892   0.768   0.70304   3.95137   7.25549   2.01266   0.08641   1.001E+00   1.000E-03  -2.475E-03
 577  7.15553973   0.768   0.70307   3.95138   7.25549   2.01266   0.08641   1.001E+00   1.000E-03  -2.440E-03
 578  7.15696583   0.768   0.70310   3.95138   7.25548   2.01266   0.08641   1.001E+00   1.000E-03  -2.406E-03
 579  7.15838727   0.768   0.70313   3.95138   7.25548   2.01267   0.08641   1.001E+00   1.000E-03  -2.372E-03
 580  7.15980407   0.768   0.70316   3.95138   7.25548   2.01267   0.08641   1.001E+00   1.000E-03  -2.338E-03
 581  7.16121627   0.768   0.70319   3.95138   7.25547   2.01267   0.08641   1.001E+00   1.000E-03  -2.304E-03
 582  7.16262388   0.768   0.70322   3.95138   7.25547   2.01268   0.08641   1.001E+00   1.000E-03  -2.270E-03
 583  7.16402695   0.768   0.70325   3.95138   7.25546   2.01268   0.08641   1.001E+00   1.000E-03  -2.235E-03
 584  7.16542550   0.768   0.70328   3.95138   7.25546   2.01268   0.08641   1.001E+00   1.000E-03  -2.201E-03
 585  7.16681956   0.768   0.70330   3.95138   7.25546   2.01269   0.08641   1.001E+00   1.000E-03  -2.167E-03
 586  7.16820917   0.768   0.70333   3.95138   7.25545   2.01269   0.08641   1.001E+00   1.000E-03  -2.133E-03
 587  7.16959433   0.768   0.70336   3.95139   7.25545   2.01269   0.08641   1.001E+00   1.000E-03  -2.099E-03
 588  7.17097510   0.768   0.70339   3.95139   7.25545   2.01270   0.08641   1.001E+00   1.000E-03  -2.065E-03
 589  7.17235149   0.768   0.70342   3.95139   7.25544   2.01270   0.08641   1.001E+00   1.000E-03  -2.031E-03
 590  7.17372353   0.768   0.70345   3.95139   7.25544   2.01270   0.08641   1.001E+00   1.000E-03  -1.996E-03
 591  7.17509125   0.768   0.70348   3.95139   7.25543   2.01271   0.08641   1.001E+00   1.000E-03  -1.962E-03
 592  7.17645468   0.768   0.70351   3.95139   7.25543   2.01271   0.08641   1.001E+00   1.000E-03  -1.929E-03
 593  7.17781383   0.768   0.70353   3.95139   7.25543   2.01271   0.08641   1.001E+00   1.000E-03  -1.917E-03
 594  7.17916875   0.768   0.70355   3.95139   7.25543   2.01272   0.08641   1.001E+00   1.000E-03  -1.905E-03
 595  7.18051946   0.768   0.70357   3.95139   7.25543   2.01272   0.08641   1.001E+00   1.000E-03  -1.893E-03
 596  7.18186598   0.768   0.70359   3.95139   7.25542   2.01273   0.08641   1.001E+00   1.000E-03  -1.882E-03
 597  7.18320833   0.768   0.70360   3.95139   7.25542   2.01273   0.08641   1.001E+00   1.000E-03  -1.870E-03
 598  7.18454655   0.768   0.70362   3.95139   7.25542   2.01273   0.08641   1.001E+00   1.000E-03  -1.858E-03
 599  7.18588066   0.768   0.70364   3.95139   7.25542   2.01274   0.08641   1.001E+00   1.000E-03  -1.846E-03
 600  7.18721068   0.768   0.70366   3.95139   7.25542   2.01274   0.08641   1.001E+00   1.000E-03  -1.834E-03
 601  7.18853664   0.768   0.70368   3.95139   7.25542   2.01274   0.08641   1.001E+00   1.000E-03  -1.822E-03
 602  7.18985857   0.768   0.70370   3.95139   7.25542   2.01275   0.08641   1.001E+00   1.000E-03  -1.810E-03
 603  7.19117648   0.768   0.70372   3.95139   7.25541   2.01275   0.08641   1.001E+00   1.000E-03  -1.798E-03
 604  7.19249041   0.767   0.70373   3.95139   7.25541   2.01275   0.08641   1.001E+00   1.000E-03  -1.786E-03
 605  7.19380037   0.767   0.70375   3.95139   7.25541   2.01276   0.08641   1.001E+00   1.000E-03  -1.774E-03
 606  7.19510639   0.767   0.70377   3.95139   7.25541   2.01276   0.08641   1.001E+00   1.000E-03  -1.762E-03
 607  7.19640850   0.767   0.70379   3.95139   7.25541   2.01277   0.08641   1.001E+00   1.000E-03  -1.750E-03
 608  7.19770672   0.767   0.70381   3.95140   7.25541   2.01277   0.08641   1.001E+00   1.000E-03  -1.738E-03
 609  7.19900106   0.767   0.70383   3.95140   7.25541   2.01277   0.08641   1.001E+00   1.000E-03  -1.726E-03
 610  7.20029157   0.767   0.70385   3.95140   7.25540   2.01278   0.08641   1.001E+00   1.000E-03  -1.714E-03
 611  7.20157824   0.767   0.70386   3.95140   7.25540   2.01278   0.08641   1.001E+00   1.000E-03  -1.702E-03
 612  7.20286112   0.767   0.70388   3.95140   7.25540   2.01278   0.08641   1.001E+00   1.000E-03  -1.690E-03
 613  7.20414022   0.767   0.70390   3.95140   7.25540   2.01279   0.08641   1.001E+00   1.000E-03  -1.678E-03
 614  7.20541556   0.767   0.70392   3.95140   7.25540   2.01279   0.08641   1.001E+00   1.000E-03  -1.666E-03
 615  7.20668717   0.767   0.70394   3.95140   7.25540   2.01280   0.08641   1.001E+00   1.000E-03  -1.654E-03
 616  7.20795506   0.767   0.70396   3.95140   7.25540   2.01280   0.08641   1.001E+00   1.000E-03  -1.642E-03
 617  7.20921927   0.767   0.70398   3.95140   7.25539   2.01280   0.08641   1.001E+00   1.000E-03  -1.631E-03
 618  7.21047980   0.767   0.70399   3.95140   7.25539   2.01281   0.08641   1.001E+00   1.000E-03  -1.619E-03
 619  7.21173669   0.767   0.70401   3.95140   7.25539   2.01281   0.08641   1.001E+00   1.000E-03  -1.607E-03
 620  7.21298995   0.767   0.70403   3.95140   7.25539   2.01281   0.08641   1.001E+00   1.000E-03  -1.595E-03
 621  7.21423960   0.767   0.70405   3.95140   7.25539   2.01282   0.08641   1.001E+00   1.000E-03  -1.583E-03
 622  7.21548567   0.767   0.70407   3.95140   7.25539   2.01282   0.08641   1.001E+00   1.000E-03  -1.571E-03
 623  7.21672818   0.767   0.70409   3.95140   7.25538   2.01283   0.08641   1.000E+00   1.000E-03  -1.559E-03
 624  7.21796714   0.767   0.70411   3.95140   7.25538   2.01283   0.08641   1.000E+00   1.000E-03  -1.547E-03
 625  7.21920257   0.767   0.70412   3.95140   7.25538   2.01283   0.08641   1.000E+00   1.000E-03  -1.535E-03
 626  7.22043450   0.767   0.70414   3.95140   7.25538   2.01284   0.08641   1.000E+00   1.000E-03  -1.523E-03
 627  7.22166295   0.767   0.70416   3.95140   7.25538   2.01284   0.08641   1.000E+00   1.000E-03  -1.511E-03
 628  7.22288793   0.767   0.70418   3.95140   7.25538   2.01284   0.08641   1.000E+00   1.000E-03  -1.499E-03
 629  7.22410946   0.767   0.70420   3.95140   7.25538   2.01285   0.08641   1.000E+00   1.000E-03  -1.487E-03
 630  7.22532757   0.767   0.70422   3.95140   7.25537   2.01285   0.08641   1.000E+00   1.000E-03  -1.475E-03
 631  7.22654227   0.767   0.70424   3.95140   7.25537   2.01286   0.08641   1.000E+00   1.000E-03  -1.463E-03
 632  7.22775358   0.767   0.70425   3.95140   7.25537   2.01286   0.08641   1.000E+00   1.000E-03  -1.451E-03
 633  7.22896153   0.767   0.70427   3.95140   7.25537   2.01286   0.08641   1.000E+00   1.000E-03  -1.439E-03
 634  7.23016612   0.767   0.70429   3.95140   7.25537   2.01287   0.08641   1.000E+00   1.000E-03  -1.427E-03
 635  7.23136739   0.767   0.70431   3.95140   7.25537   2.01287   0.08641   1.000E+00   1.000E-03  -1.415E-03
 636  7.23256533   0.767   0.70433   3.95140   7.25537   2.01287   0.08641   1.000E+00   1.000E-03  -1.403E-03
 637  7.23375999   0.767   0.70435   3.95140   7.25536   2.01288   0.08641   1.000E+00   1.000E-03  -1.392E-03
 638  7.23495136   0.767   0.70437   3.95140   7.25536   2.01288   0.08641   1.000E+00   1.000E-03  -1.380E-03
 639  7.23613948   0.767   0.70438   3.95141   7.25536   2.01288   0.08641   1.000E+00   1.000E-03  -1.368E-03
 640  7.23732436   0.767   0.70440   3.95141   7.25536   2.01289   0.08641   1.000E+00   1.000E-03  -1.356E-03
 641  7.23850601   0.767   0.70442   3.95141   7.25536   2.01289   0.08641   1.000E+00   1.000E-03  -1.344E-03
 642  7.23968445   0.767   0.70444   3.95141   7.25536   2.01290   0.08641   1.000E+00   1.000E-03  -1.332E-03
 643  7.24085971   0.767   0.70446   3.95141   7.25536   2.01290   0.08641   1.000E+00   1.000E-03  -1.320E-03
 644  7.24203179   0.767   0.70448   3.95141   7.25535   2.01290   0.08641   1.000E+00   1.000E-03  -1.308E-03
 645  7.24320072   0.767   0.70450   3.95141   7.25535   2.01291   0.08641   1.000E+00   1.000E-03  -1.296E-03
 646  7.24436651   0.767   0.70451   3.95141   7.25535   2.01291   0.08641   1.000E+00   1.000E-03  -1.284E-03
 647  7.24552918   0.767   0.70453   3.95141   7.25535   2.01291   0.08641   1.000E+00   1.000E-03  -1.272E-03
 648  7.24668875   0.767   0.70455   3.95141   7.25535   2.01292   0.08641   1.000E+00   1.000E-03  -1.260E-03
 649  7.24784523   0.767   0.70457   3.95141   7.25535   2.01292   0.08641   1.000E+00   1.000E-03  -1.248E-03
 650  7.24899864   0.767   0.70459   3.95141   7.25535   2.01293   0.08641   1.000E+00   1.000E-03  -1.236E-03
 651  7.25014899   0.767   0.70461   3.95141   7.25534   2.01293   0.08641   1.000E+00   1.000E-03  -1.224E-03
 652  7.25129630   0.767   0.70463   3.95141   7.25534   2.01293   0.08641   1.000E+00   1.000E-03  -1.212E-03
 653  7.25244059   0.767   0.70464   3.95141   7.25534   2.01294   0.08641   1.000E+00   1.000E-03  -1.200E-03
 654  7.25358188   0.767   0.70466   3.95141   7.25534   2.01294   0.08641   1.000E+00   1.000E-03  -1.189E-03
 655  7.25472017   0.767   0.70467   3.95141   7.25534   2.01294   0.08641   1.000E+00   1.000E-03  -1.184E-03
 656  7.25585548   0.767   0.70469   3.95141   7.25534   2.01295   0.08641   1.000E+00   1.000E-03  -1.179E-03
 657  7.25698784   0.767   0.70470   3.95141   7.25534   2.01295   0.08641   1.000E+00   1.000E-03  -1.175E-03
 658  7.25811725   0.767   0.70471   3.95141   7.25534   2.01296   0.08641   1.000E+00   1.000E-03  -1.170E-03
 659  7.25924373   0.767   0.70473   3.95141   7.25534   2.01296   0.08641   1.000E+00   1.000E-03  -1.165E-03
 660  7.26036730   0.767   0.70474   3.95141   7.25534   2.01297   0.08641   1.000E+00   1.000E-03  -1.160E-03
 661  7.26148797   0.767   0.70475   3.95141   7.25534   2.01297   0.08641   1.000E+00   1.000E-03  -1.155E-03
 662  7.26260575   0.767   0.70476   3.95141   7.25534   2.01297   0.08641   1.000E+00   1.000E-03  -1.150E-03
 663  7.26372066   0.767   0.70478   3.95141   7.25534   2.01298   0.08641   1.000E+00   1.000E-03  -1.145E-03
 664  7.26483272   0.767   0.70479   3.95141   7.25534   2.01298   0.08641   1.000E+00   1.000E-03  -1.140E-03
 665  7.26594194   0.767   0.70480   3.95141   7.25534   2.01299   0.08641   1.000E+00   1.000E-03  -1.135E-03
 666  7.26704834   0.767   0.70482   3.95141   7.25534   2.01299   0.08641   1.000E+00   1.000E-03  -1.130E-03
 667  7.26815192   0.767   0.70483   3.95141   7.25534   2.01299   0.08641   1.000E+00   1.000E-03  -1.125E-03
 668  7.26925270   0.767   0.70484   3.95141   7.25534   2.01300   0.08641   1.000E+00   1.000E-03  -1.120E-03
 669  7.27035070   0.767   0.70485   3.95141   7.25534   2.01300   0.08641   1.000E+00   1.000E-03  -1.116E-03
 670  7.27144594   0.767   0.70487   3.95142   7.25534   2.01301   0.08641   1.000E+00   1.000E-03  -1.111E-03
 671  7.27253841   0.767   0.70488   3.95142   7.25534   2.01301   0.08641   1.000E+00   1.000E-03  -1.106E-03
 672  7.27362815   0.767   0.70489   3.95142   7.25534   2.01301   0.08641   1.000E+00   1.000E-03  -1.101E-03
 673  7.27471516   0.767   0.70491   3.95142   7.25534   2.01302   0.08641   1.000E+00   1.000E-03  -1.096E-03
 674  7.27579945   0.767   0.70492   3.95142   7.25534   2.01302   0.08641   1.000E+00   1.000E-03  -1.091E-03
 675  7.27688105   0.767   0.70493   3.95142   7.25534   2.01303   0.08641   1.000E+00   1.000E-03  -1.086E-03
 676  7.27795995   0.767   0.70494   3.95142   7.25534   2.01303   0.08641   1.000E+00   1.000E-03  -1.081E-03
 677  7.27903619   0.767   0.70496   3.95142   7.25534   2.01303   0.08641   1.000E+00   1.000E-03  -1.076E-03
 678  7.28010976   0.767   0.70497   3.95142   7.25534   2.01304   0.08641   1.000E+00   1.000E-03  -1.071E-03
 679  7.28118069   0.767   0.70498   3.95142   7.25534   2.01304   0.08641   1.000E+00   1.000E-03  -1.066E-03
 680  7.28224898   0.767   0.70499   3.95142   7.25534   2.01305   0.08641   1.000E+00   1.000E-03  -1.061E-03
 681  7.28331465   0.767   0.70501   3.95142   7.25534   2.01305   0.08641   1.000E+00   1.000E-03  -1.056E-03
 682  7.28437771   0.767   0.70502   3.95142   7.25534   2.01306   0.08641   1.000E+00   1.000E-03  -1.052E-03
 683  7.28543817   0.767   0.70503   3.95142   7.25534   2.01306   0.08641   1.000E+00   1.000E-03  -1.047E-03
 684  7.28649606   0.767   0.70505   3.95142   7.25534   2.01306   0.08641   1.000E+00   1.000E-03  -1.042E-03
 685  7.28755137   0.767   0.70506   3.95142   7.25534   2.01307   0.08641   1.000E+00   1.000E-03  -1.037E-03
 686  7.28860412   0.767   0.70507   3.95142   7.25534   2.01307   0.08641   1.000E+00   1.000E-03  -1.032E-03
 687  7.28965433   0.767   0.70508   3.95142   7.25534   2.01308   0.08641   1.000E+00   1.000E-03  -1.027E-03
 688  7.29070201   0.767   0.70510   3.95142   7.25534   2.01308   0.08641   1.000E+00   1.000E-03  -1.022E-03
 689  7.29174716   0.767   0.70511   3.95142   7.25534   2.01308   0.08641   1.000E+00   1.000E-03  -1.017E-03
 690  7.29278980   0.766   0.70512   3.95142   7.25534   2.01309   0.08641   1.000E+00   1.000E-03  -1.012E-03
 691  7.29382995   0.766   0.70514   3.95142   7.25534   2.01309   0.08641   1.000E+00   1.000E-03  -1.007E-03
 692  7.29486761   0.766   0.70515   3.95142   7.25534   2.01310   0.08641   1.000E+00   1.000E-03  -1.002E-03
 693  7.29590280   0.766   0.70516   3.95142   7.25534   2.01310   0.08641   1.000E+00   1.000E-03  -9.974E-04
 694  7.29693553   0.766   0.70517   3.95142   7.25534   2.01310   0.08641   1.000E+00   1.000E-03  -9.925E-04
 695  7.29796580   0.766   0.70519   3.95142   7.25534   2.01311   0.08641   1.000E+00   1.000E-03  -9.876E-04
 696  7.29899364   0.766   0.70520   3.95142   7.25534   2.01311   0.08641   1.000E+00   1.000E-03  -9.827E-04
 697  7.30001905   0.766   0.70521   3.95142   7.25534   2.01312   0.08641   1.000E+00   1.000E-03  -9.777E-04
 698  7.30104205   0.766   0.70523   3.95142   7.25534   2.01312   0.08641   1.000E+00   1.000E-03  -9.728E-04
 699  7.30206264   0.766   0.70524   3.95142   7.25534   2.01312   0.08641   1.000E+00   1.000E-03  -9.679E-04
 700  7.30308084   0.766   0.70525   3.95142   7.25534   2.01313   0.08641   1.000E+00   1.000E-03  -9.630E-04
 701  7.30409666   0.766   0.70526   3.95143   7.25535   2.01313   0.08641   1.000E+00   1.000E-03  -9.581E-04
 702  7.30511011   0.766   0.70528   3.95143   7.25535   2.01314   0.08641   1.000E+00   1.000E-03  -9.531E-04
 703  7.30612120   0.766   0.70529   3.95143   7.25535   2.01314   0.08641   1.000E+00   1.000E-03  -9.482E-04
 704  7.30712994   0.766   0.70530   3.95143   7.25535   2.01315   0.08641   1.000E+00   1.000E-03  -9.433E-04
 705  7.30813634   0.766   0.70532   3.95143   7.25535   2.01315   0.08641   1.000E+00   1.000E-03  -9.384E-04
 706  7.30914041   0.766   0.70533   3.95143   7.25535   2.01315   0.08641   1.000E+00   1.000E-03  -9.335E-04
 707  7.31014217   0.766   0.70534   3.95143   7.25535   2.01316   0.08641   1.000E+00   1.000E-03  -9.285E-04
 708  7.31114163   0.766   0.70535   3.95143   7.25535   2.01316   0.08641   1.000E+00   1.000E-03  -9.236E-04
 709  7.31213879   0.766   0.70537   3.95143   7.25535   2.01317   0.08641   1.000E+00   1.000E-03  -9.187E-04
 710  7.31313366   0.766   0.70538   3.95143   7.25535   2.01317   0.08641   1.000E+00   1.000E-03  -9.138E-04
 711  7.31412626   0.766   0.70539   3.95143   7.25535   2.01317   0.08641   1.000E+00   1.000E-03  -9.089E-04
 712  7.31511660   0.766   0.70540   3.95143   7.25535   2.01318   0.08641   1.000E+00   1.000E-03  -9.039E-04
 713  7.31610468   0.766   0.70542   3.95143   7.25535   2.01318   0.08641   1.000E+00   1.000E-03  -8.990E-04
 714  7.31709052   0.766   0.70543   3.95143   7.25535   2.01319   0.08641   1.000E+00   1.000E-03  -8.941E-04
 715  7.31807413   0.766   0.70544   3.95143   7.25535   2.01319   0.08641   1.000E+00   1.000E-03  -8.892E-04
 716  7.31905552   0.766   0.70546   3.95143   7.25535   2.01319   0.08641   1.000E+00   1.000E-03  -8.843E-04
 717  7.32003469   0.766   0.70547   3.95143   7.25535   2.01320   0.08641   1.000E+00   1.000E-03  -8.793E-04
 718  7.32101166   0.766   0.70548   3.95143   7.25535   2.01320   0.08641   1.000E+00   1.000E-03  -8.744E-04
 719  7.32198644   0.766   0.70549   3.95143   7.25535   2.01321   0.08641   1.000E+00   1.000E-03  -8.695E-04
 720  7.32295903   0.766   0.70551   3.95143   7.25535   2.01321   0.08641   1.000E+00   1.000E-03  -8.646E-04
 721  7.32392946   0.766   0.70552   3.95143   7.25535   2.01321   0.08641   1.000E+00   1.000E-03  -8.597E-04
 722  7.32489771   0.766   0.70553   3.95143   7.25535   2.01322   0.08641   1.000E+00   1.000E-03  -8.547E-04
 723  7.32586382   0.766   0.70555   3.95143   7.25535   2.01322   0.08641   1.000E+00   1.000E-03  -8.498E-04
 724  7.32682778   0.766   0.70556   3.95143   7.25535   2.01323   0.08641   1.000E+00   1.000E-03  -8.449E-04
 725  7.32778960   0.766   0.70557   3.95143   7.25535   2.01323   0.08641   1.000E+00   1.000E-03  -8.400E-04
 726  7.32874930   0.766   0.70558   3.95143   7.25535   2.01324   0.08641   1.000E+00   1.000E-03  -8.350E-04
 727  7.32970688   0.766   0.70560   3.95143   7.25535   2.01324   0.08641   1.000E+00   1.000E-03  -8.301E-04
 728  7.33066236   0.766   0.70561   3.95143   7.25535   2.01324   0.08641   1.000E+00   1.000E-03  -8.252E-04
 729  7.33161574   0.766   0.70562   3.95143   7.25535   2.01325   0.08641   1.000E+00   1.000E-03  -8.203E-04
 730  7.33256703   0.766   0.70564   3.95143   7.25535   2.01325   0.08641   1.000E+00   1.000E-03  -8.154E-04
 731  7.33351624   0.766   0.70565   3.95143   7.25535   2.01326   0.08641   1.000E+00   1.000E-03  -8.104E-04
 732  7.33446338   0.766   0.70566   3.95144   7.25535   2.01326   0.08641   1.000E+00   1.000E-03  -8.055E-04
 733  7.33540846   0.766   0.70567   3.95144   7.25535   2.01326   0.08641   1.000E+00   1.000E-03  -8.006E-04
 734  7.33635149   0.766   0.70569   3.95144   7.25535   2.01327   0.08641   1.000E+00   1.000E-03  -7.957E-04
 735  7.33729248   0.766   0.70570   3.95144   7.25535   2.01327   0.08641   1.000E+00   1.000E-03  -7.908E-04
 736  7.33823143   0.766   0.70571   3.95144   7.25535   2.01328   0.08641   1.000E+00   1.000E-03  -7.858E-04
 737  7.33916835   0.766   0.70573   3.95144   7.25535   2.01328   0.08641   1.000E+00   1.000E-03  -7.809E-04
 738  7.34010326   0.766   0.70574   3.95144   7.25535   2.01328   0.08641   1.000E+00   1.000E-03  -7.760E-04
 739  7.34103616   0.766   0.70575   3.95144   7.25535   2.01329   0.08641   1.000E+00   1.000E-03  -7.711E-04
 740  7.34196706   0.766   0.70576   3.95144   7.25535   2.01329   0.08641   1.000E+00   1.000E-03  -7.662E-04
 741  7.34289597   0.766   0.70578   3.95144   7.25535   2.01330   0.08641   1.000E+00   1.000E-03  -7.612E-04
 742  7.34382289   0.766   0.70579   3.95144   7.25535   2.01330   0.08641   1.000E+00   1.000E-03  -7.563E-04
 743  7.34474785   0.766   0.70580   3.95144   7.25535   2.01330   0.08641   1.000E+00   1.000E-03  -7.514E-04
 744  7.34567083   0.766   0.70581   3.95144   7.25535   2.01331   0.08641   1.000E+00   1.000E-03  -7.465E-04
 745  7.34659186   0.766   0.70583   3.95144   7.25535   2.01331   0.08641   1.000E+00   1.000E-03  -7.416E-04
 746  7.34751094   0.766   0.70584   3.95144   7.25535   2.01332   0.08641   1.000E+00   1.000E-03  -7.366E-04
 747  7.34842808   0.766   0.70585   3.95144   7.25535   2.01332   0.08641   1.000E+00   1.000E-03  -7.325E-04
 748  7.34934329   0.766   0.70586   3.95144   7.25535   2.01333   0.08641   1.000E+00   1.000E-03  -7.304E-04
 749  7.35025657   0.766   0.70587   3.95144   7.25535   2.01333   0.08641   1.000E+00   1.000E-03  -7.284E-04
 750  7.35116793   0.766   0.70588   3.95144   7.25535   2.01333   0.08641   1.000E+00   1.000E-03  -7.264E-04
 751  7.35207739   0.766   0.70589   3.95144   7.25535   2.01334   0.08641   1.000E+00   1.000E-03  -7.244E-04
 752  7.35298495   0.766   0.70590   3.95144   7.25536   2.01334   0.08641   1.000E+00   1.000E-03  -7.224E-04
 753  7.35389061   0.766   0.70591   3.95144   7.25536   2.01335   0.08641   1.000E+00   1.000E-03  -7.203E-04
 754  7.35479439   0.766   0.70592   3.95144   7.25536   2.01335   0.08641   1.000E+00   1.000E-03  -7.183E-04
 755  7.35569629   0.766   0.70593   3.95144   7.25536   2.01336   0.08641   1.000E+00   1.000E-03  -7.163E-04
 756  7.35659632   0.766   0.70594   3.95144   7.25536   2.01336   0.08641   1.000E+00   1.000E-03  -7.143E-04
 757  7.35749449   0.766   0.70595   3.95144   7.25536   2.01337   0.08641   1.000E+00   1.000E-03  -7.122E-04
 758  7.35839081   0.766   0.70596   3.95144   7.25536   2.01337   0.08641   1.000E+00   1.000E-03  -7.102E-04
 759  7.35928528   0.766   0.70597   3.95144   7.25536   2.01337   0.08641   1.000E+00   1.000E-03  -7.082E-04
 760  7.36017792   0.766   0.70598   3.95144   7.25536   2.01338   0.08641   1.000E+00   1.000E-03  -7.062E-04
 761  7.36106872   0.766   0.70599   3.95145   7.25537   2.01338   0.08641   1.000E+00   1.000E-03  -7.041E-04
 762  7.36195770   0.766   0.70600   3.95145   7.25537   2.01339   0.08641   1.000E+00   1.000E-03  -7.021E-04
 763  7.36284486   0.766   0.70601   3.95145   7.25537   2.01339   0.08641   1.000E+00   1.000E-03  -7.001E-04
 764  7.36373022   0.766   0.70602   3.95145   7.25537   2.01340   0.08641   1.000E+00   1.000E-03  -6.981E-04
 765  7.36461377   0.766   0.70603   3.95145   7.25537   2.01340   0.08641   1.000E+00   1.000E-03  -6.960E-04
 766  7.36549553   0.766   0.70604   3.95145   7.25537   2.01341   0.08641   1.000E+00   1.000E-03  -6.940E-04
 767  7.36637550   0.766   0.70605   3.95145   7.25537   2.01341   0.08641   1.000E+00   1.000E-03  -6.920E-04
 768  7.36725369   0.766   0.70606   3.95145   7.25537   2.01341   0.08641   1.000E+00   1.000E-03  -6.900E-04
 769  7.36813011   0.766   0.70607   3.95145   7.25537   2.01342   0.08641   1.000E+00   1.000E-03  -6.879E-04
 770  7.36900477   0.766   0.70608   3.95145   7.25538   2.01342   0.08641   1.000E+00   1.000E-03  -6.859E-04
 771  7.36987767   0.766   0.70609   3.95145   7.25538   2.01343   0.08641   1.000E+00   1.000E-03  -6.839E-04
 772  7.37074881   0.766   0.70610   3.95145   7.25538   2.01343   0.08641   1.000E+00   1.000E-03  -6.819E-04
 773  7.37161822   0.766   0.70611   3.95145   7.25538   2.01344   0.08641   1.000E+00   1.000E-03  -6.798E-04
 774  7.37248588   0.766   0.70612   3.95145   7.25538   2.01344   0.08641   1.000E+00   1.000E-03  -6.778E-04
 775  7.37335182   0.765   0.70613   3.95145   7.25538   2.01345   0.08641   1.000E+00   1.000E-03  -6.758E-04
 776  7.37421603   0.765   0.70614   3.95145   7.25538   2.01345   0.08641   1.000E+00   1.000E-03  -6.738E-04
 777  7.37507853   0.765   0.70615   3.95145   7.25538   2.01345   0.08641   1.000E+00   1.000E-03  -6.717E-04
 778  7.37593932   0.765   0.70616   3.95145   7.25538   2.01346   0.08641   1.000E+00   1.000E-03  -6.697E-04
 779  7.37679840   0.765   0.70616   3.95145   7.25538   2.01346   0.08641   1.000E+00   1.000E-03  -6.677E-04
 780  7.37765579   0.765   0.70617   3.95145   7.25539   2.01347   0.08641   1.000E+00   1.000E-03  -6.657E-04
 781  7.37851149   0.765   0.70618   3.95145   7.25539   2.01347   0.08641   1.000E+00   1.000E-03  -6.637E-04
 782  7.37936550   0.765   0.70619   3.95145   7.25539   2.01348   0.08641   1.000E+00   1.000E-03  -6.616E-04
 783  7.38021784   0.765   0.70620   3.95145   7.25539   2.01348   0.08641   1.000E+00   1.000E-03  -6.596E-04
 784  7.38106852   0.765   0.70621   3.95145   7.25539   2.01349   0.08641   1.000E+00   1.000E-03  -6.576E-04
 785  7.38191752   0.765   0.70622   3.95145   7.25539   2.01349   0.08641   1.000E+00   1.000E-03  -6.556E-04
 786  7.38276487   0.765   0.70623   3.95145   7.25539   2.01349   0.08641   1.000E+00   1.000E-03  -6.535E-04
 787  7.38361058   0.765   0.70624   3.95145   7.25539   2.01350   0.08641   1.000E+00   1.000E-03  -6.515E-04
 788  7.38445463   0.765   0.70625   3.95145   7.25539   2.01350   0.08641   1.000E+00   1.000E-03  -6.495E-04
 789  7.38529705   0.765   0.70626   3.95146   7.25540   2.01351   0.08641   1.000E+00   1.000E-03  -6.475E-04
 790  7.38613784   0.765   0.70627   3.95146   7.25540   2.01351   0.08641   1.000E+00   1.000E-03  -6.454E-04
 791  7.38697701   0.765   0.70628   3.95146   7.25540   2.01352   0.08641   1.000E+00   1.000E-03  -6.434E-04
 792  7.38781455   0.765   0.70629   3.95146   7.25540   2.01352   0.08641   1.000E+00   1.000E-03  -6.414E-04
 793  7.38865049   0.765   0.70630   3.95146   7.25540   2.01353   0.08641   1.000E+00   1.000E-03  -6.394E-04
 794  7.38948482   0.765   0.70631   3.95146   7.25540   2.01353   0.08641   1.000E+00   1.000E-03  -6.373E-04
 795  7.39031754   0.765   0.70632   3.95146   7.25540   2.01353   0.08641   1.000E+00   1.000E-03  -6.353E-04
 796  7.39114868   0.765   0.70633   3.95146   7.25540   2.01354   0.08641   1.000E+00   1.000E-03  -6.333E-04
 797  7.39197823   0.765   0.70634   3.95146   7.25540   2.01354   0.08641   1.000E+00   1.000E-03  -6.313E-04
 798  7.39280619   0.765   0.70635   3.95146   7.25541   2.01355   0.08641   1.000E+00   1.000E-03  -6.292E-04
 799  7.39363258   0.765   0.70636   3.95146   7.25541   2.01355   0.08641   1.000E+00   1.000E-03  -6.272E-04
 800  7.39445740   0.765   0.70637   3.95146   7.25541   2.01356   0.08641   1.000E+00   1.000E-03  -6.252E-04
 801  7.39528066   0.765   0.70638   3.95146   7.25541   2.01356   0.08641   1.000E+00   1.000E-03  -6.232E-04
 802  7.39610236   0.765   0.70639   3.95146   7.25541   2.01357   0.08641   1.000E+00   1.000E-03  -6.211E-04
 803  7.39692251   0.765   0.70640   3.95146   7.25541   2.01357   0.08641   1.000E+00   1.000E-03  -6.191E-04
 804  7.39774111   0.765   0.70641   3.95146   7.25541   2.01357   0.08641   1.000E+00   1.000E-03  -6.171E-04
 805  7.39855817   0.765   0.70642   3.95146   7.25541   2.01358   0.08641   1.000E+00   1.000E-03  -6.151E-04
 806  7.39937370   0.765   0.70643   3.95146   7.25541   2.01358   0.08641   1.000E+00   1.000E-03  -6.130E-04
 807  7.40018770   0.765   0.70644   3.95146   7.25541   2.01359   0.08641   1.000E+00   1.000E-03  -6.110E-04
 808  7.40100018   0.765   0.70645   3.95146   7.25542   2.01359   0.08641   1.000E+00   1.000E-03  -6.090E-04
 809  7.40181114   0.765   0.70646   3.95146   7.25542   2.01360   0.08641   1.000E+00   1.000E-03  -6.070E-04
 810  7.40262058   0.765   0.70647   3.95146   7.25542   2.01360   0.08641   1.000E+00   1.000E-03  -6.050E-04
 811  7.40342853   0.765   0.70648   3.95146   7.25542   2.01361   0.08641   1.000E+00   1.000E-03  -6.029E-04
 812  7.40423497   0.765   0.70649   3.95146   7.25542   2.01361   0.08641   1.000E+00   1.000E-03  -6.009E-04
 813  7.40503991   0.765   0.70650   3.95146   7.25542   2.01361   0.08641   1.000E+00   1.000E-03  -5.989E-04
 814  7.40584337   0.765   0.70651   3.95146   7.25542   2.01362   0.08641   1.000E+00   1.000E-03  -5.969E-04
 815  7.40664535   0.765   0.70652   3.95146   7.25542   2.01362   0.08641   1.000E+00   1.000E-03  -5.948E-04
 816  7.40744584   0.765   0.70653   3.95146   7.25542   2.01363   0.08641   1.000E+00   1.000E-03  -5.928E-04
 817  7.40824486   0.765   0.70654   3.95147   7.25543   2.01363   0.08641   1.000E+00   1.000E-03  -5.908E-04
 818  7.40904242   0.765   0.70655   3.95147   7.25543   2.01364   0.08641   1.000E+00   1.000E-03  -5.888E-04
 819  7.40983851   0.765   0.70656   3.95147   7.25543   2.01364   0.08641   1.000E+00   1.000E-03  -5.867E-04
 820  7.41063315   0.765   0.70657   3.95147   7.25543   2.01365   0.08641   1.000E+00   1.000E-03  -5.847E-04
 821  7.41142634   0.765   0.70657   3.95147   7.25543   2.01365   0.08641   1.000E+00   1.000E-03  -5.827E-04
 822  7.41221808   0.765   0.70658   3.95147   7.25543   2.01365   0.08641   1.000E+00   1.000E-03  -5.807E-04
 823  7.41300837   0.765   0.70659   3.95147   7.25543   2.01366   0.08641   1.000E+00   1.000E-03  -5.786E-04
 824  7.41379724   0.765   0.70660   3.95147   7.25543   2.01366   0.08641   1.000E+00   1.000E-03  -5.766E-04
 825  7.41458467   0.765   0.70661   3.95147   7.25543   2.01367   0.08641   1.000E+00   1.000E-03  -5.746E-04
 826  7.41537068   0.765   0.70662   3.95147   7.25544   2.01367   0.08641   1.000E+00   1.000E-03  -5.726E-04
 827  7.41615527   0.765   0.70663   3.95147   7.25544   2.01368   0.08641   1.000E+00   1.000E-03  -5.705E-04
 828  7.41693844   0.765   0.70664   3.95147   7.25544   2.01368   0.08641   1.000E+00   1.000E-03  -5.685E-04
 829  7.41772020   0.765   0.70665   3.95147   7.25544   2.01369   0.08641   1.000E+00   1.000E-03  -5.665E-04
 830  7.41850056   0.765   0.70666   3.95147   7.25544   2.01369   0.08641   1.000E+00   1.000E-03  -5.645E-04
 831  7.41927952   0.765   0.70667   3.95147   7.25544   2.01369   0.08641   1.000E+00   1.000E-03  -5.624E-04
 832  7.42005709   0.765   0.70668   3.95147   7.25544   2.01370   0.08641   1.000E+00   1.000E-03  -5.604E-04
 833  7.42083326   0.765   0.70669   3.95147   7.25544   2.01370   0.08641   1.000E+00   1.000E-03  -5.584E-04
 834  7.42160805   0.765   0.70670   3.95147   7.25544   2.01371   0.08641   1.000E+00   1.000E-03  -5.564E-04
 835  7.42238146   0.765   0.70671   3.95147   7.25545   2.01371   0.08641   1.000E+00   1.000E-03  -5.543E-04
 836  7.42315350   0.765   0.70672   3.95147   7.25545   2.01372   0.08641   1.000E+00   1.000E-03  -5.523E-04
 837  7.42392416   0.765   0.70673   3.95147   7.25545   2.01372   0.08641   1.000E+00   1.000E-03  -5.503E-04
 838  7.42469346   0.765   0.70674   3.95147   7.25545   2.01373   0.08641   1.000E+00   1.000E-03  -5.483E-04
 839  7.42546140   0.765   0.70675   3.95147   7.25545   2.01373   0.08641   1.000E+00   1.000E-03  -5.463E-04
 840  7.42622799   0.765   0.70676   3.95147   7.25545   2.01374   0.08641   1.000E+00   1.000E-03  -5.442E-04
 841  7.42699322   0.765   0.70677   3.95147   7.25545   2.01374   0.08641   1.000E+00   1.000E-03  -5.422E-04
 842  7.42775711   0.765   0.70678   3.95147   7.25545   2.01374   0.08641   1.000E+00   1.000E-03  -5.402E-04
 843  7.42851965   0.765   0.70679   3.95147   7.25545   2.01375   0.08641   1.000E+00   1.000E-03  -5.382E-04
 844  7.42928086   0.765   0.70680   3.95147   7.25545   2.01375   0.08641   1.000E+00   1.000E-03  -5.361E-04
 845  7.43004074   0.765   0.70681   3.95148   7.25546   2.01376   0.08641   1.000E+00   1.000E-03  -5.341E-04
 846  7.43079929   0.765   0.70682   3.95148   7.25546   2.01376   0.08641   1.000E+00   1.000E-03  -5.321E-04
 847  7.43155652   0.765   0.70683   3.95148   7.25546   2.01377   0.08641   1.000E+00   1.000E-03  -5.301E-04
 848  7.43231243   0.765   0.70684   3.95148   7.25546   2.01377   0.08641   1.000E+00   1.000E-03  -5.280E-04
 849  7.43306703   0.765   0.70685   3.95148   7.25546   2.01378   0.08641   1.000E+00   1.000E-03  -5.260E-04
 850  7.43382032   0.765   0.70686   3.95148   7.25546   2.01378   0.08641   1.000E+00   1.000E-03  -5.240E-04
 851  7.43457230   0.765   0.70687   3.95148   7.25546   2.01378   0.08641   1.000E+00   1.000E-03  -5.220E-04
 852  7.43532298   0.765   0.70688   3.95148   7.25546   2.01379   0.08641   1.000E+00   1.000E-03  -5.199E-04
 853  7.43607237   0.765   0.70689   3.95148   7.25546   2.01379   0.08641   1.000E+00   1.000E-03  -5.179E-04
 854  7.43682047   0.765   0.70690   3.95148   7.25547   2.01380   0.08641   1.000E+00   1.000E-03  -5.159E-04
 855  7.43756728   0.765   0.70691   3.95148   7.25547   2.01380   0.08641   1.000E+00   1.000E-03  -5.139E-04
 856  7.43831281   0.765   0.70692   3.95148   7.25547   2.01381   0.08641   1.000E+00   1.000E-03  -5.118E-04
 857  7.43905706   0.765   0.70693   3.95148   7.25547   2.01381   0.08641   1.000E+00   1.000E-03  -5.098E-04
 858  7.43980004   0.765   0.70694   3.95148   7.25547   2.01382   0.08641   1.000E+00   1.000E-03  -5.078E-04
 859  7.44054175   0.765   0.70695   3.95148   7.25547   2.01382   0.08641   1.000E+00   1.000E-03  -5.058E-04
 860  7.44128219   0.765   0.70696   3.95148   7.25547   2.01382   0.08641   1.000E+00   1.000E-03  -5.037E-04
 861  7.44202138   0.764   0.70697   3.95148   7.25547   2.01383   0.08641   1.000E+00   1.000E-03  -5.017E-04
 862  7.44275931   0.764   0.70698   3.95148   7.25547   2.01383   0.08641   1.000E+00   1.000E-03  -4.997E-04
 863  7.44349598   0.764   0.70698   3.95148   7.25548   2.01384   0.08641   1.000E+00   1.000E-03  -4.977E-04
 864  7.44423141   0.764   0.70699   3.95148   7.25548   2.01384   0.08641   1.000E+00   1.000E-03  -4.956E-04
 865  7.44496560   0.764   0.70700   3.95148   7.25548   2.01385   0.08641   1.000E+00   1.000E-03  -4.936E-04
 866  7.44569855   0.764   0.70701   3.95148   7.25548   2.01385   0.08641   1.000E+00   1.000E-03  -4.916E-04
 867  7.44643026   0.764   0.70702   3.95148   7.25548   2.01386   0.08641   1.000E+00   1.000E-03  -4.896E-04
 868  7.44716074   0.764   0.70703   3.95148   7.25548   2.01386   0.08641   1.000E+00   1.000E-03  -4.875E-04
 869  7.44788999   0.764   0.70704   3.95148   7.25548   2.01386   0.08641   1.000E+00   1.000E-03  -4.855E-04
 870  7.44861803   0.764   0.70705   3.95148   7.25548   2.01387   0.08641   1.000E+00   1.000E-03  -4.835E-04
 871  7.44934484   0.764   0.70706   3.95148   7.25548   2.01387   0.08641   1.000E+00   1.000E-03  -4.815E-04
 872  7.45007044   0.764   0.70707   3.95148   7.25548   2.01388   0.08641   1.000E+00   1.000E-03  -4.795E-04
 873  7.45079483   0.764   0.70708   3.95149   7.25549   2.01388   0.08641   1.000E+00   1.000E-03  -4.774E-04
 874  7.45151801   0.764   0.70709   3.95149   7.25549   2.01389   0.08641   1.000E+00   1.000E-03  -4.754E-04
 875  7.45223999   0.764   0.70710   3.95149   7.25549   2.01389   0.08641   1.000E+00   1.000E-03  -4.734E-04
 876  7.45296078   0.764   0.70711   3.95149   7.25549   2.01390   0.08641   1.000E+00   1.000E-03  -4.714E-04
 877  7.45368036   0.764   0.70712   3.95149   7.25549   2.01390   0.08641   1.000E+00   1.000E-03  -4.693E-04
 878  7.45439876   0.764   0.70713   3.95149   7.25549   2.01390   0.08641   1.000E+00   1.000E-03  -4.673E-04
 879  7.45511597   0.764   0.70714   3.95149   7.25549   2.01391   0.08641   1.000E+00   1.000E-03  -4.653E-04
 880  7.45583200   0.764   0.70715   3.95149   7.25549   2.01391   0.08641   1.000E+00   1.000E-03  -4.633E-04
 881  7.45654685   0.764   0.70716   3.95149   7.25549   2.01392   0.08641   1.000E+00   1.000E-03  -4.612E-04
 882  7.45726053   0.764   0.70717   3.95149   7.25550   2.01392   0.08641   1.000E+00   1.000E-03  -4.592E-04
 883  7.45797303   0.764   0.70718   3.95149   7.25550   2.01393   0.08641   1.000E+00   1.000E-03  -4.572E-04
 884  7.45868437   0.764   0.70719   3.95149   7.25550   2.01393   0.08641   1.000E+00   1.000E-03  -4.552E-04
 885  7.45939455   0.764   0.70720   3.95149   7.25550   2.01394   0.08641   1.000E+00   1.000E-03  -4.531E-04
 886  7.46010356   0.764   0.70721   3.95149   7.25550   2.01394   0.08641   1.000E+00   1.000E-03  -4.511E-04
 887  7.46081142   0.764   0.70722   3.95149   7.25550   2.01394   0.08641   1.000E+00   1.000E-03  -4.502E-04
 888  7.46151813   0.764   0.70723   3.95149   7.25550   2.01395   0.08641   1.000E+00   1.000E-03  -4.494E-04
 889  7.46222369   0.764   0.70723   3.95149   7.25550   2.01395   0.08641   1.000E+00   1.000E-03  -4.485E-04
 890  7.46292810   0.764   0.70724   3.95149   7.25551   2.01396   0.08641   1.000E+00   1.000E-03  -4.477E-04
 891  7.46363138   0.764   0.70725   3.95149   7.25551   2.01396   0.08641   1.000E+00   1.000E-03  -4.468E-04
 892  7.46433352   0.764   0.70726   3.95149   7.25551   2.01397   0.08641   1.000E+00   1.000E-03  -4.460E-04
 893  7.46503452   0.764   0.70727   3.95149   7.25551   2.01397   0.08641   1.000E+00   1.000E-03  -4.451E-04
 894  7.46573440   0.764   0.70727   3.95149   7.25551   2.01398   0.08641   1.000E+00   1.000E-03  -4.443E-04
 895  7.46643314   0.764   0.70728   3.95149   7.25551   2.01398   0.08641   1.000E+00   1.000E-03  -4.435E-04
 896  7.46713077   0.764   0.70729   3.95149   7.25552   2.01399   0.08641   1.000E+00   1.000E-03  -4.426E-04
 897  7.46782728   0.764   0.70730   3.95149   7.25552   2.01399   0.08641   1.000E+00   1.000E-03  -4.418E-04
 898  7.46852267   0.764   0.70730   3.95149   7.25552   2.01400   0.08641   1.000E+00   1.000E-03  -4.409E-04
 899  7.46921695   0.764   0.70731   3.95150   7.25552   2.01400   0.08641   1.000E+00   1.000E-03  -4.401E-04
 900  7.46991012   0.764   0.70732   3.95150   7.25552   2.01401   0.08641   1.000E+00   1.000E-03  -4.392E-04
 901  7.47060219   0.764   0.70733   3.95150   7.25552   2.01401   0.08641   1.000E+00   1.000E-03  -4.384E-04
 902  7.47129316   0.764   0.70734   3.95150   7.25552   2.01402   0.08641   1.000E+00   1.000E-03  -4.375E-04
 903  7.47198302   0.764   0.70734   3.95150   7.25553   2.01402   0.08641   1.000E+00   1.000E-03  -4.367E-04
 904  7.47267180   0.764   0.70735   3.95150   7.25553   2.01402   0.08641   1.000E+00   1.000E-03  -4.359E-04
 905  7.47335948   0.764   0.70736   3.95150   7.25553   2.01403   0.08641   1.000E+00   1.000E-03  -4.350E-04
 906  7.47404608   0.764   0.70737   3.95150   7.25553   2.01403   0.08641   1.000E+00   1.000E-03  -4.342E-04
 907  7.47473159   0.764   0.70738   3.95150   7.25553   2.01404   0.08641   1.000E+00   1.000E-03  -4.333E-04
 908  7.47541603   0.764   0.70738   3.95150   7.25553   2.01404   0.08641   1.000E+00   1.000E-03  -4.325E-04
 909  7.47609938   0.764   0.70739   3.95150   7.25553   2.01405   0.08641   1.000E+00   1.000E-03  -4.316E-04
 910  7.47678166   0.764   0.70740   3.95150   7.25554   2.01405   0.08641   1.000E+00   1.000E-03  -4.308E-04
 911  7.47746288   0.764   0.70741   3.95150   7.25554   2.01406   0.08641   1.000E+00   1.000E-03  -4.299E-04
 912  7.47814302   0.764   0.70742   3.95150   7.25554   2.01406   0.08641   1.000E+00   1.000E-03  -4.291E-04
 913  7.47882210   0.764   0.70742   3.95150   7.25554   2.01407   0.08641   1.000E+00   1.000E-03  -4.283E-04
 914  7.47950013   0.764   0.70743   3.95150   7.25554   2.01407   0.08641   1.000E+00   1.000E-03  -4.274E-04
 915  7.48017709   0.764   0.70744   3.95150   7.25554   2.01408   0.08641   1.000E+00   1.000E-03  -4.266E-04
 916  7.48085300   0.764   0.70745   3.95150   7.25555   2.01408   0.08641   1.000E+00   1.000E-03  -4.257E-04
 917  7.48152786   0.764   0.70746   3.95150   7.25555   2.01409   0.08641   1.000E+00   1.000E-03  -4.249E-04
 918  7.48220168   0.764   0.70746   3.95150   7.25555   2.01409   0.08641   1.000E+00   1.000E-03  -4.240E-04
 919  7.48287445   0.764   0.70747   3.95150   7.25555   2.01410   0.08641   1.000E+00   1.000E-03  -4.232E-04
 920  7.48354618   0.764   0.70748   3.95150   7.25555   2.01410   0.08641   1.000E+00   1.000E-03  -4.223E-04
 921  7.48421687   0.764   0.70749   3.95150   7.25555   2.01411   0.08641   1.000E+00   1.000E-03  -4.215E-04
 922  7.48488653   0.764   0.70750   3.95150   7.25555   2.01411   0.08641   1.000E+00   1.000E-03  -4.207E-04
 923  7.48555515   0.764   0.70750   3.95150   7.25556   2.01411   0.08641   1.000E+00   1.000E-03  -4.198E-04
 924  7.48622275   0.764   0.70751   3.95150   7.25556   2.01412   0.08641   1.000E+00   1.000E-03  -4.190E-04
 925  7.48688933   0.764   0.70752   3.95151   7.25556   2.01412   0.08641   1.000E+00   1.000E-03  -4.181E-04
 926  7.48755488   0.764   0.70753   3.95151   7.25556   2.01413   0.08641   1.000E+00   1.000E-03  -4.173E-04
 927  7.48821941   0.764   0.70754   3.95151   7.25556   2.01413   0.08641   1.000E+00   1.000E-03  -4.164E-04
 928  7.48888293   0.764   0.70754   3.95151   7.25556   2.01414   0.08641   1.000E+00   1.000E-03  -4.156E-04
 929  7.48954544   0.764   0.70755   3.95151   7.25556   2.01414   0.08641   1.000E+00   1.000E-03  -4.148E-04
 930  7.49020694   0.764   0.70756   3.95151   7.25557   2.01415   0.08641   1.000E+00   1.000E-03  -4.139E-04
 931  7.49086743   0.764   0.70757   3.95151   7.25557   2.01415   0.08641   1.000E+00   1.000E-03  -4.131E-04
 932  7.49152692   0.764   0.70758   3.95151   7.25557   2.01416   0.08641   1.000E+00   1.000E-03  -4.122E-04
 933  7.49218541   0.764   0.70758   3.95151   7.25557   2.01416   0.08641   1.000E+00   1.000E-03  -4.114E-04
 934  7.49284290   0.764   0.70759   3.95151   7.25557   2.01417   0.08641   1.000E+00   1.000E-03  -4.105E-04
 935  7.49349940   0.764   0.70760   3.95151   7.25557   2.01417   0.08641   1.000E+00   1.000E-03  -4.097E-04
 936  7.49415490   0.764   0.70761   3.95151   7.25558   2.01418   0.08641   1.000E+00   1.000E-03  -4.088E-04
 937  7.49480942   0.764   0.70762   3.95151   7.25558   2.01418   0.08641   1.000E+00   1.000E-03  -4.080E-04
 938  7.49546296   0.764   0.70762   3.95151   7.25558   2.01419   0.08641   1.000E+00   1.000E-03  -4.072E-04
 939  7.49611551   0.764   0.70763   3.95151   7.25558   2.01419   0.08641   1.000E+00   1.000E-03  -4.063E-04
 940  7.49676708   0.764   0.70764   3.95151   7.25558   2.01420   0.08641   1.000E+00   1.000E-03  -4.055E-04
 941  7.49741768   0.764   0.70765   3.95151   7.25558   2.01420   0.08641   1.000E+00   1.000E-03  -4.046E-04
 942  7.49806731   0.764   0.70765   3.95151   7.25558   2.01420   0.08641   1.000E+00   1.000E-03  -4.038E-04
 943  7.49871596   0.764   0.70766   3.95151   7.25559   2.01421   0.08641   1.000E+00   1.000E-03  -4.029E-04
 944  7.49936365   0.764   0.70767   3.95151   7.25559   2.01421   0.08641   1.000E+00   1.000E-03  -4.021E-04
 945  7.50001037   0.764   0.70768   3.95151   7.25559   2.01422   0.08641   1.000E+00   1.000E-03  -4.012E-04
 946  7.50065613   0.764   0.70769   3.95151   7.25559   2.01422   0.08641   1.000E+00   1.000E-03  -4.004E-04
 947  7.50130093   0.763   0.70769   3.95151   7.25559   2.01423   0.08641   1.000E+00   1.000E-03  -3.996E-04
 948  7.50194478   0.763   0.70770   3.95151   7.25559   2.01423   0.08641   1.000E+00   1.000E-03  -3.987E-04
 949  7.50258767   0.763   0.70771   3.95151   7.25560   2.01424   0.08641   1.000E+00   1.000E-03  -3.979E-04
 950  7.50322961   0.763   0.70772   3.95151   7.25560   2.01424   0.08641   1.000E+00   1.000E-03  -3.970E-04
 951  7.50387061   0.763   0.70773   3.95152   7.25560   2.01425   0.08641   1.000E+00   1.000E-03  -3.962E-04
 952  7.50451066   0.763   0.70773   3.95152   7.25560   2.01425   0.08641   1.000E+00   1.000E-03  -3.953E-04
 953  7.50514976   0.763   0.70774   3.95152   7.25560   2.01426   0.08641   1.000E+00   1.000E-03  -3.945E-04
 954  7.50578793   0.763   0.70775   3.95152   7.25560   2.01426   0.08641   1.000E+00   1.000E-03  -3.936E-04
 955  7.50642517   0.763   0.70776   3.95152   7.25560   2.01427   0.08641   1.000E+00   1.000E-03  -3.928E-04
 956  7.50706147   0.763   0.70777   3.95152   7.25561   2.01427   0.08641   1.000E+00   1.000E-03  -3.920E-04
 957  7.50769683   0.763   0.70777   3.95152   7.25561   2.01428   0.08641   1.000E+00   1.000E-03  -3.911E-04
 958  7.50833127   0.763   0.70778   3.95152   7.25561   2.01428   0.08641   1.000E+00   1.000E-03  -3.903E-04
 959  7.50896479   0.763   0.70779   3.95152   7.25561   2.01429   0.08641   1.000E+00   1.000E-03  -3.894E-04
 960  7.50959738   0.763   0.70780   3.95152   7.25561   2.01429   0.08641   1.000E+00   1.000E-03  -3.886E-04
 961  7.51022905   0.763   0.70781   3.95152   7.25561   2.01429   0.08641   1.000E+00   1.000E-03  -3.877E-04
 962  7.51085981   0.763   0.70781   3.95152   7.25561   2.01430   0.08641   1.000E+00   1.000E-03  -3.869E-04
 963  7.51148965   0.763   0.70782   3.95152   7.25562   2.01430   0.08641   1.000E+00   1.000E-03  -3.860E-04
 964  7.51211857   0.763   0.70783   3.95152   7.25562   2.01431   0.08641   1.000E+00   1.000E-03  -3.852E-04
 965  7.51274659   0.763   0.70784   3.95152   7.25562   2.01431   0.08641   1.000E+00   1.000E-03  -3.844E-04
 966  7.51337370   0.763   0.70785   3.95152   7.25562   2.01432   0.08641   1.000E+00   1.000E-03  -3.835E-04
 967  7.51399991   0.763   0.70785   3.95152   7.25562   2.01432   0.08641   1.000E+00   1.000E-03  -3.827E-04
 968  7.51462522   0.763   0.70786   3.95152   7.25562   2.01433   0.08641   1.000E+00   1.000E-03  -3.818E-04
 969  7.51524962   0.763   0.70787   3.95152   7.25563   2.01433   0.08641   1.000E+00   1.000E-03  -3.810E-04
 970  7.51587313   0.763   0.70788   3.95152   7.25563   2.01434   0.08641   1.000E+00   1.000E-03  -3.801E-04
 971  7.51649575   0.763   0.70789   3.95152   7.25563   2.01434   0.08641   1.000E+00   1.000E-03  -3.793E-04
 972  7.51711747   0.763   0.70789   3.95152   7.25563   2.01435   0.08641   1.000E+00   1.000E-03  -3.785E-04
 973  7.51773831   0.763   0.70790   3.95152   7.25563   2.01435   0.08641   1.000E+00   1.000E-03  -3.776E-04
 974  7.51835826   0.763   0.70791   3.95152   7.25563   2.01436   0.08641   1.000E+00   1.000E-03  -3.768E-04
 975  7.51897732   0.763   0.70792   3.95152   7.25563   2.01436   0.08641   1.000E+00   1.000E-03  -3.759E-04
 976  7.51959551   0.763   0.70793   3.95153   7.25564   2.01437   0.08641   1.000E+00   1.000E-03  -3.751E-04
 977  7.52021281   0.763   0.70793   3.95153   7.25564   2.01437   0.08641   1.000E+00   1.000E-03  -3.742E-04
 978  7.52082924   0.763   0.70794   3.95153   7.25564   2.01438   0.08641   1.000E+00   1.000E-03  -3.734E-04
 979  7.52144480   0.763   0.70795   3.95153   7.25564   2.01438   0.08641   1.000E+00   1.000E-03  -3.725E-04
 980  7.52205949   0.763   0.70796   3.95153   7.25564   2.01438   0.08641   1.000E+00   1.000E-03  -3.717E-04
 981  7.52267330   0.763   0.70797   3.95153   7.25564   2.01439   0.08641   1.000E+00   1.000E-03  -3.709E-04
 982  7.52328625   0.763   0.70797   3.95153   7.25565   2.01439   0.08641   1.000E+00   1.000E-03  -3.700E-04
 983  7.52389834   0.763   0.70798   3.95153   7.25565   2.01440   0.08641   1.000E+00   1.000E-03  -3.692E-04
 984  7.52450956   0.763   0.70799   3.95153   7.25565   2.01440   0.08641   1.000E+00   1.000E-03  -3.683E-04
 985  7.52511993   0.763   0.70800   3.95153   7.25565   2.01441   0.08641   1.000E+00   1.000E-03  -3.675E-04
 986  7.52572944   0.763   0.70800   3.95153   7.25565   2.01441   0.08641   1.000E+00   1.000E-03  -3.666E-04
 987  7.52633809   0.763   0.70801   3.95153   7.25565   2.01442   0.08641   1.000E+00   1.000E-03  -3.658E-04
 988  7.52694589   0.763   0.70802   3.95153   7.25565   2.01442   0.08641   1.000E+00   1.000E-03  -3.649E-04
 989  7.52755285   0.763   0.70803   3.95153   7.25566   2.01443   0.08641   1.000E+00   1.000E-03  -3.641E-04
 990  7.52815895   0.763   0.70804   3.95153   7.25566   2.01443   0.08641   1.000E+00   1.000E-03  -3.633E-04
 991  7.52876421   0.763   0.70804   3.95153   7.25566   2.01444   0.08641   1.000E+00   1.000E-03  -3.624E-04
 992  7.52936863   0.763   0.70805   3.95153   7.25566   2.01444   0.08641   1.000E+00   1.000E-03  -3.616E-04
 993  7.52997221   0.763   0.70806   3.95153   7.25566   2.01445   0.08641   1.000E+00   1.000E-03  -3.607E-04
 994  7.53057495   0.763   0.70807   3.95153   7.25566   2.01445   0.08641   1.000E+00   1.000E-03  -3.599E-04
 995  7.53117686   0.763   0.70808   3.95153   7.25566   2.01446   0.08641   1.000E+00   1.000E-03  -3.590E-04
 996  7.53177793   0.763   0.70808   3.95153   7.25567   2.01446   0.08641   1.000E+00   1.000E-03  -3.582E-04
 997  7.53237818   0.763   0.70809   3.95153   7.25567   2.01447   0.08641   1.000E+00   1.000E-03  -3.573E-04
 998  7.53297759   0.763   0.70810   3.95153   7.25567   2.01447   0.08641   1.000E+00   1.000E-03  -3.565E-04
 999  7.53357618   0.763   0.70811   3.95153   7.25567   2.01447   0.08641   1.000E+00   1.000E-03  -3.557E-04
1000  7.53417394   0.763   0.70812   3.95153   7.25567   2.01448   0.08641   1.000E+00   1.000E-03  -3.548E-04
1001  7.53477088   0.763   0.70812   3.95153   7.25567   2.01448   0.08641   1.000E+00   1.000E-03  -3.540E-04
1002  7.53536701   0.763   0.70813   3.95154   7.25568   2.01449   0.08641   1.000E+00   1.000E-03  -3.531E-04
1003  7.53596231   0.763   0.70814   3.95154   7.25568   2.01449   0.08641   1.000E+00   1.000E-03  -3.523E-04
1004  7.53655680   0.763   0.70815   3.95154   7.25568   2.01450   0.08641   1.000E+00   1.000E-03  -3.514E-04
1005  7.53715048   0.763   0.70816   3.95154   7.25568   2.01450   0.08641   1.000E+00   1.000E-03  -3.506E-04
1006  7.53774335   0.763   0.70816   3.95154   7.25568   2.01451   0.08641   1.000E+00   1.000E-03  -3.498E-04
1007  7.53833541   0.763   0.70817   3.95154   7.25568   2.01451   0.08641   1.000E+00   1.000E-03  -3.489E-04
1008  7.53892666   0.763   0.70818   3.95154   7.25568   2.01452   0.08641   1.000E+00   1.000E-03  -3.481E-04
1009  7.53951711   0.763   0.70819   3.95154   7.25569   2.01452   0.08641   1.000E+00   1.000E-03  -3.472E-04
1010  7.54010676   0.763   0.70820   3.95154   7.25569   2.01453   0.08641   1.000E+00   1.000E-03  -3.464E-04
1011  7.54069561   0.763   0.70820   3.95154   7.25569   2.01453   0.08641   1.000E+00   1.000E-03  -3.455E-04
1012  7.54128366   0.763   0.70821   3.95154   7.25569   2.01454   0.08641   1.000E+00   1.000E-03  -3.447E-04
1013  7.54187091   0.763   0.70822   3.95154   7.25569   2.01454   0.08641   1.000E+00   1.000E-03  -3.438E-04
1014  7.54245738   0.763   0.70823   3.95154   7.25569   2.01455   0.08641   1.000E+00   1.000E-03  -3.430E-04
1015  7.54304305   0.763   0.70824   3.95154   7.25570   2.01455   0.08641   1.000E+00   1.000E-03  -3.422E-04
1016  7.54362793   0.763   0.70824   3.95154   7.25570   2.01456   0.08641   1.000E+00   1.000E-03  -3.413E-04
1017  7.54421203   0.763   0.70825   3.95154   7.25570   2.01456   0.08641   1.000E+00   1.000E-03  -3.405E-04
1018  7.54479534   0.763   0.70826   3.95154   7.25570   2.01456   0.08641   1.000E+00   1.000E-03  -3.396E-04
1019  7.54537787   0.763   0.70827   3.95154   7.25570   2.01457   0.08641   1.000E+00   1.000E-03  -3.388E-04
1020  7.54595962   0.763   0.70828   3.95154   7.25570   2.01457   0.08641   1.000E+00   1.000E-03  -3.379E-04
1021  7.54654059   0.763   0.70828   3.95154   7.25570   2.01458   0.08641   1.000E+00   1.000E-03  -3.371E-04
1022  7.54712079   0.763   0.70829   3.95154   7.25571   2.01458   0.08641   1.000E+00   1.000E-03  -3.362E-04
1023  7.54770021   0.763   0.70830   3.95154   7.25571   2.01459   0.08641   1.000E+00   1.000E-03  -3.354E-04
1024  7.54827886   0.763   0.70831   3.95154   7.25571   2.01459   0.08641   1.000E+00   1.000E-03  -3.346E-04
1025  7.54885673   0.763   0.70832   3.95154   7.25571   2.01460   0.08641   1.000E+00   1.000E-03  -3.337E-04
1026  7.54943385   0.763   0.70832   3.95154   7.25571   2.01460   0.08641   1.000E+00   1.000E-03  -3.329E-04
1027  7.55001019   0.763   0.70833   3.95155   7.25571   2.01461   0.08641   1.000E+00   1.000E-03  -3.320E-04
1028  7.55058577   0.763   0.70834   3.95155   7.25571   2.01461   0.08641   1.000E+00   1.000E-03  -3.312E-04
1029  7.55116059   0.763   0.70835   3.95155   7.25572   2.01462   0.08641   1.000E+00   1.000E-03  -3.303E-04
1030  7.55173465   0.763   0.70835   3.95155   7.25572   2.01462   0.08641   1.000E+00   1.000E-03  -3.295E-04
1031  7.55230795   0.763   0.70836   3.95155   7.25572   2.01463   0.08641   1.000E+00   1.000E-03  -3.286E-04
1032  7.55288050   0.763   0.70837   3.95155   7.25572   2.01463   0.08641   1.000E+00   1.000E-03  -3.278E-04
1033  7.55345229   0.763   0.70838   3.95155   7.25572   2.01464   0.08641   1.000E+00   1.000E-03  -3.270E-04
1034  7.55402333   0.762   0.70839   3.95155   7.25572   2.01464   0.08641   1.000E+00   1.000E-03  -3.261E-04
1035  7.55459362   0.762   0.70839   3.95155   7.25573   2.01464   0.08641   1.000E+00   1.000E-03  -3.253E-04
1036  7.55516317   0.762   0.70840   3.95155   7.25573   2.01465   0.08641   1.000E+00   1.000E-03  -3.244E-04
1037  7.55573196   0.762   0.70841   3.95155   7.25573   2.01465   0.08641   1.000E+00   1.000E-03  -3.236E-04
1038  7.55630002   0.762   0.70842   3.95155   7.25573   2.01466   0.08641   1.000E+00   1.000E-03  -3.227E-04
1039  7.55686733   0.762   0.70843   3.95155   7.25573   2.01466   0.08641   1.000E+00   1.000E-03  -3.219E-04
1040  7.55743390   0.762   0.70843   3.95155   7.25573   2.01467   0.08641   1.000E+00   1.000E-03  -3.211E-04
1041  7.55799973   0.762   0.70844   3.95155   7.25573   2.01467   0.08641   1.000E+00   1.000E-03  -3.202E-04
1042  7.55856483   0.762   0.70845   3.95155   7.25574   2.01468   0.08641   1.000E+00   1.000E-03  -3.194E-04
1043  7.55912919   0.762   0.70846   3.95155   7.25574   2.01468   0.08641   1.000E+00   1.000E-03  -3.185E-04
1044  7.55969282   0.762   0.70847   3.95155   7.25574   2.01469   0.08641   1.000E+00   1.000E-03  -3.177E-04
1045  7.56025572   0.762   0.70847   3.95155   7.25574   2.01469   0.08641   1.000E+00   1.000E-03  -3.168E-04
1046  7.56081789   0.762   0.70848   3.95155   7.25574   2.01470   0.08641   1.000E+00   1.000E-03  -3.160E-04
1047  7.56137933   0.762   0.70849   3.95155   7.25574   2.01470   0.08641   1.000E+00   1.000E-03  -3.151E-04
1048  7.56194005   0.762   0.70850   3.95155   7.25574   2.01471   0.08641   1.000E+00   1.000E-03  -3.143E-04
1049  7.56250004   0.762   0.70851   3.95155   7.25575   2.01471   0.08641   1.000E+00   1.000E-03  -3.135E-04
1050  7.56305932   0.762   0.70851   3.95155   7.25575   2.01472   0.08641   1.000E+00   1.000E-03  -3.126E-04
1051  7.56361787   0.762   0.70852   3.95155   7.25575   2.01472   0.08641   1.000E+00   1.000E-03  -3.118E-04
1052  7.56417571   0.762   0.70853   3.95155   7.25575   2.01473   0.08641   1.000E+00   1.000E-03  -3.109E-04
1053  7.56473283   0.762   0.70854   3.95156   7.25575   2.01473   0.08641   1.000E+00   1.000E-03  -3.101E-04
1054  7.56528924   0.762   0.70855   3.95156   7.25575   2.01473   0.08641   1.000E+00   1.000E-03  -3.092E-04
1055  7.56584494   0.762   0.70855   3.95156   7.25576   2.01474   0.08641   1.000E+00   1.000E-03  -3.084E-04
1056  7.56639992   0.762   0.70856   3.95156   7.25576   2.01474   0.08641   1.000E+00   1.000E-03  -3.075E-04
1057  7.56695420   0.762   0.70857   3.95156   7.25576   2.01475   0.08641   1.000E+00   1.000E-03  -3.067E-04
1058  7.56750777   0.762   0.70858   3.95156   7.25576   2.01475   0.08641   1.000E+00   1.000E-03  -3.059E-04
1059  7.56806064   0.762   0.70859   3.95156   7.25576   2.01476   0.08641   1.000E+00   1.000E-03  -3.050E-04
1060  7.56861280   0.762   0.70859   3.95156   7.25576   2.01476   0.08641   1.000E+00   1.000E-03  -3.042E-04
1061  7.56916427   0.762   0.70860   3.95156   7.25576   2.01477   0.08641   1.000E+00   1.000E-03  -3.033E-04
1062  7.56971503   0.762   0.70861   3.95156   7.25577   2.01477   0.08641   1.000E+00   1.000E-03  -3.025E-04
1063  7.57026510   0.762   0.70862   3.95156   7.25577   2.01478   0.08641   1.000E+00   1.000E-03  -3.016E-04
1064  7.57081447   0.762   0.70863   3.95156   7.25577   2.01478   0.08641   1.000E+00   1.000E-03  -3.008E-04
1065  7.57136314   0.762   0.70863   3.95156   7.25577   2.01479   0.08641   1.000E+00   1.000E-03  -2.999E-04
1066  7.57191113   0.762   0.70864   3.95156   7.25577   2.01479   0.08641   1.000E+00   1.000E-03  -2.991E-04
1067  7.57245842   0.762   0.70865   3.95156   7.25577   2.01480   0.08641   1.000E+00   1.000E-03  -2.983E-04
1068  7.57300502   0.762   0.70866   3.95156   7.25578   2.01480   0.08641   1.000E+00   1.000E-03  -2.974E-04
1069  7.57355094   0.762   0.70867   3.95156   7.25578   2.01481   0.08641   1.000E+00   1.000E-03  -2.966E-04
1070  7.57409617   0.762   0.70867   3.95156   7.25578   2.01481   0.08641   1.000E+00   1.000E-03  -2.957E-04
1071  7.57464072   0.762   0.70868   3.95156   7.25578   2.01482   0.08641   1.000E+00   1.000E-03  -2.949E-04
1072  7.57518459   0.762   0.70869   3.95156   7.25578   2.01482   0.08641   1.000E+00   1.000E-03  -2.940E-04
1073  7.57572777   0.762   0.70870   3.95156   7.25578   2.01482   0.08641   1.000E+00   1.000E-03  -2.932E-04
1074  7.57627028   0.762   0.70870   3.95156   7.25578   2.01483   0.08641   1.000E+00   1.000E-03  -2.924E-04
1075  7.57681211   0.762   0.70871   3.95156   7.25579   2.01483   0.08641   1.000E+00   1.000E-03  -2.915E-04
1076  7.57735327   0.762   0.70872   3.95156   7.25579   2.01484   0.08641   1.000E+00   1.000E-03  -2.907E-04
1077  7.57789375   0.762   0.70873   3.95156   7.25579   2.01484   0.08641   1.000E+00   1.000E-03  -2.898E-04
1078  7.57843356   0.762   0.70874   3.95156   7.25579   2.01485   0.08641   1.000E+00   1.000E-03  -2.890E-04
1079  7.57897270   0.762   0.70874   3.95157   7.25579   2.01485   0.08641   1.000E+00   1.000E-03  -2.881E-04
1080  7.57951117   0.762   0.70875   3.95157   7.25579   2.01486   0.08641   1.000E+00   1.000E-03  -2.873E-04
1081  7.58004897   0.762   0.70876   3.95157   7.25579   2.01486   0.08641   1.000E+00   1.000E-03  -2.864E-04
1082  7.58058611   0.762   0.70877   3.95157   7.25580   2.01487   0.08641   1.000E+00   1.000E-03  -2.856E-04
1083  7.58112259   0.762   0.70878   3.95157   7.25580   2.01487   0.08641   1.000E+00   1.000E-03  -2.848E-04
1084  7.58165840   0.762   0.70878   3.95157   7.25580   2.01488   0.08641   1.000E+00   1.000E-03  -2.839E-04
1085  7.58219356   0.762   0.70879   3.95157   7.25580   2.01488   0.08641   1.000E+00   1.000E-03  -2.831E-04
1086  7.58272805   0.762   0.70880   3.95157   7.25580   2.01489   0.08641   1.000E+00   1.000E-03  -2.822E-04
1087  7.58326189   0.762   0.70881   3.95157   7.25580   2.01489   0.08641   1.000E+00   1.000E-03  -2.814E-04
1088  7.58379507   0.762   0.70882   3.95157   7.25581   2.01490   0.08641   1.000E+00   1.000E-03  -2.805E-04
1089  7.58432760   0.762   0.70882   3.95157   7.25581   2.01490   0.08641   1.000E+00   1.000E-03  -2.797E-04
1090  7.58485948   0.762   0.70883   3.95157   7.25581   2.01491   0.08641   1.000E+00   1.000E-03  -2.788E-04
1091  7.58539071   0.762   0.70884   3.95157   7.25581   2.01491   0.08641   1.000E+00   1.000E-03  -2.780E-04
1092  7.74662023   0.758   0.71138   3.95174   7.25653   2.01689   0.08227   9.996E-01   1.000E-03  -1.055E-04
1093  7.86393293   0.753   0.71376   3.95195   7.25734   2.01907   0.08227   9.990E-01   1.000E-03  -2.538E-07
1094  7.95620220   0.749   0.71606   3.95217   7.25820   2.02134   0.08227   9.990E-01   1.000E-03   5.726E-05
1095  8.03226184   0.745   0.71830   3.95240   7.25911   2.02368   0.08227   9.990E-01   1.000E-03   9.914E-05
1096  8.09696509   0.740   0.72052   3.95264   7.26003   2.02609   0.07812   9.990E-01   1.000E-03   1.302E-04
1097  8.15326675   0.736   0.72274   3.95290   7.26097   2.02861   0.07812   9.990E-01   1.000E-03   1.606E-04
1098  8.20310004   0.731   0.72492   3.95314   7.26193   2.03110   0.07812   9.990E-01   1.000E-03   1.713E-04
1099  8.24779925   0.727   0.72710   3.95339   7.26289   2.03361   0.07640   9.990E-01   1.000E-03   1.790E-04
1100  8.28832414   0.722   0.72929   3.95364   7.26386   2.03618   0.07397   9.990E-01   1.000E-03   1.986E-04
1101  8.32538822   0.717   0.73148   3.95390   7.26484   2.03880   0.07397   9.990E-01   1.000E-03   2.158E-04
1102  8.35953636   0.713   0.73364   3.95415   7.26582   2.04139   0.07397   9.990E-01   1.000E-03   2.190E-04
1103  8.39119409   0.708   0.73580   3.95440   7.26681   2.04398   0.07397   9.990E-01   1.000E-03   2.267E-04
1104  8.42070010   0.703   0.73797   3.95465   7.26780   2.04660   0.07397   9.990E-01   1.000E-03   2.393E-04
1105  8.44832837   0.699   0.74014   3.95490   7.26879   2.04923   0.07397   9.990E-01   1.000E-03   2.504E-04
1106  8.47430366   0.694   0.74232   3.95515   7.26979   2.05188   0.06913   9.990E-01   1.000E-03   2.617E-04
1107  8.49881265   0.689   0.74453   3.95542   7.27080   2.05471   0.06898   9.990E-01   1.000E-03   2.936E-04
1108  8.52201207   0.684   0.74669   3.95567   7.27182   2.05741   0.06775   9.990E-01   1.000E-03   2.856E-04
1109  8.54403481   0.679   0.74887   3.95592   7.27284   2.06012   0.06672   9.990E-01   1.000E-03   2.753E-04
1110  8.56499447   0.674   0.75106   3.95619   7.27385   2.06292   0.06429   9.990E-01   1.000E-03   2.983E-04
1111  8.58498900   0.669   0.75327   3.95646   7.27488   2.06579   0.06429   9.990E-01   1.000E-03   3.179E-04
1112  8.60410337   0.664   0.75545   3.95672   7.27593   2.06862   0.06429   9.984E-01   1.000E-03   3.181E-04
1113  8.62241181   0.659   0.75764   3.95698   7.27696   2.07145   0.06148   9.980E-01   1.000E-03   3.228E-04
1114  8.63997955   0.653   0.75987   3.95725   7.27801   2.07441   0.06014   9.980E-01   1.000E-03   3.477E-04
1115  8.65686419   0.648   0.76209   3.95752   7.27907   2.07737   0.06014   9.980E-01   1.000E-03   3.611E-04
1116  8.67311688   0.643   0.76429   3.95779   7.28013   2.08031   0.06014   9.980E-01   1.000E-03   3.560E-04
1117  8.68878323   0.637   0.76651   3.95806   7.28118   2.08329   0.05600   9.980E-01   1.099E-03   3.690E-04
1118  8.70390405   0.632   0.76878   3.95834   7.28224   2.08642   0.05600   9.980E-01   2.000E-03   3.979E-04
1119  8.71851609   0.626   0.77100   3.95861   7.28333   2.08948   0.05600   9.980E-01   2.000E-03   4.023E-04
1120  8.73265245   0.621   0.77324   3.95888   7.28441   2.09255   0.05411   9.980E-01   2.000E-03   4.025E-04
1121  8.74634314   0.615   0.77551   3.95916   7.28549   2.09575   0.04996   9.980E-01   2.000E-03   4.273E-04
1122  8.75961540   0.609   0.77780   3.95945   7.28658   2.09905   0.04856   9.980E-01   2.000E-03   4.524E-04
1123  8.77249406   0.603   0.78006   3.95973   7.28769   2.10230   0.04649   9.980E-01   2.000E-03   4.493E-04
1124  8.78500178   0.597   0.78235   3.95999   7.28887   2.10584   0.04614   9.970E-01   2.000E-03   4.017E-04
1125  8.79715934   0.591   0.78471   3.96021   7.29017   2.10973   0.04614   9.970E-01   2.000E-03   3.737E-04
1126  8.80898581   0.585   0.78714   3.96045   7.29147   2.11376   0.04537   9.970E-01   2.000E-03   4.138E-04
1127  8.82049875   0.579   0.78959   3.96070   7.29279   2.11787   0.04373   9.970E-01   2.535E-03   4.425E-04
1128  8.83171435   0.573   0.79205   3.96095   7.29412   2.12201   0.04373   9.970E-01   3.000E-03   4.528E-04
1129  8.84264759   0.567   0.79451   3.96119   7.29547   2.12614   0.04373   9.970E-01   3.000E-03   4.580E-04
1130  8.85331233   0.560   0.79699   3.96144   7.29681   2.13036   0.04131   9.968E-01   3.000E-03   4.768E-04
1131  8.86372145   0.554   0.79951   3.96169   7.29817   2.13468   0.04017   9.960E-01   3.000E-03   5.041E-04
1132  8.87388691   0.547   0.80203   3.96195   7.29954   2.13907   0.03889   9.960E-01   3.000E-03   5.185E-04
1133  8.88381986   0.541   0.80458   3.96221   7.30093   2.14350   0.03889   9.960E-01   3.995E-03   5.409E-04
1134  8.89353070   0.534   0.80714   3.96247   7.30232   2.14799   0.03647   9.960E-01   4.000E-03   5.526E-04
1135  8.90302915   0.527   0.80972   3.96274   7.30372   2.15261   0.03514   9.955E-01   4.000E-03   5.801E-04
1136  8.91232429   0.521   0.81234   3.96302   7.30513   2.15733   0.03405   9.950E-01   4.000E-03   6.001E-04
1137  8.92142465   0.514   0.81497   3.96329   7.30656   2.16215   0.03163   9.950E-01   5.000E-03   6.328E-04
1138  8.93033823   0.506   0.81763   3.96357   7.30799   2.16708   0.03023   9.945E-01   5.000E-03   6.509E-04
1139  8.93907254   0.499   0.81972   3.96366   7.30955   2.17034   0.03105   9.948E-01   5.000E-03   3.734E-04
1140  8.94763464   0.492   0.82238   3.96383   7.31078   2.17485   0.03163   9.942E-01   5.000E-03   3.562E-04
1141  8.95603121   0.485   0.82478   3.96401   7.31232   2.17879   0.03160   9.940E-01   6.000E-03   6.013E-04
1142  8.96426850   0.478   0.82805   3.96445   7.31355   2.18541   0.02806   9.930E-01   6.000E-03   8.272E-04
1143  8.97235247   0.470   0.83109   3.96494   7.31511   2.19194   0.02263   9.930E-01   6.000E-03   1.061E-03
1144  8.98028870   0.463   0.83407   3.96533   7.31645   2.19824   0.01878   9.920E-01   7.000E-03   8.787E-04
1145  8.98808251   0.455   0.83693   3.96567   7.31789   2.20414   0.01587   9.920E-01   7.000E-03   8.600E-04
1146  8.99573892   0.447   0.83989   3.96604   7.31924   2.21041   0.01336   9.918E-01   7.167E-03   9.128E-04
1147  9.00326268   0.438   0.84285   3.96640   7.32059   2.21679   0.01047   9.910E-01   8.000E-03   9.214E-04
1148  9.01065831   0.430   0.84582   3.96677   7.32189   2.22331   0.00742   9.909E-01   8.132E-03   9.339E-04
1149  9.01793011   0.421   0.84882   3.96714   7.32317   2.22992   0.00536   9.900E-01   9.000E-03   9.462E-04
1150  9.02508215   0.412   0.85186   3.96751   7.32439   2.23675   0.00328   9.900E-01   9.000E-03   9.812E-04
1151  9.03211832   0.403   0.85493   3.96789   7.32553   2.24380   0.00108   9.893E-01   9.653E-03   1.005E-03
1152  9.03904231   0.394   0.85799   3.96826   7.32687   2.25184   0.00008   9.890E-01   1.000E-02   9.957E-04
1153  9.04585764   0.385   0.86111   3.96862   7.32834   2.26053   0.00000   9.883E-01   1.072E-02   1.001E-03
1154  9.05256766   0.375   0.86431   3.96897   7.32986   2.26923   0.00000   9.877E-01   1.130E-02   1.043E-03
1155  9.05917559   0.366   0.86755   3.96933   7.33140   2.27795   0.00000   9.870E-01   1.200E-02   1.068E-03
1156  9.06568448   0.357   0.87085   3.96969   7.33295   2.28672   0.00000   9.860E-01   1.254E-02   1.106E-03
1157  9.07209726   0.348   0.87419   3.97006   7.33449   2.29553   0.00000   9.858E-01   1.320E-02   1.142E-03
1158  9.07841673   0.339   0.87756   3.97043   7.33604   2.30437   0.00000   9.850E-01   1.400E-02   1.167E-03
1159  9.08464556   0.330   0.88098   3.97082   7.33759   2.31324   0.00000   9.840E-01   1.500E-02   1.196E-03
1160  9.09078631   0.322   0.88444   3.97119   7.33914   2.32214   0.00000   9.827E-01   1.600E-02   1.233E-03
1161  9.09684144   0.313   0.88794   3.97159   7.34070   2.33107   0.00000   9.820E-01   1.700E-02   1.261E-03
1162  9.10281331   0.304   0.89148   3.97197   7.34224   2.34004   0.00000   9.810E-01   1.779E-02   1.288E-03
1163  9.10870418   0.296   0.89506   3.97236   7.34381   2.34898   0.00000   9.800E-01   1.900E-02   1.297E-03
1164  9.11451621   0.287   0.89868   3.97276   7.34539   2.35798   0.00000   9.786E-01   2.000E-02   1.334E-03
1165  9.12025148   0.279   0.90234   3.97316   7.34699   2.36700   0.00000   9.778E-01   2.118E-02   1.365E-03
1166  9.12591200   0.271   0.90604   3.97356   7.34859   2.37606   0.00000   9.760E-01   2.202E-02   1.400E-03
1167  9.13149969   0.262   0.90979   3.97397   7.35022   2.38514   0.00000   9.750E-01   2.388E-02   1.428E-03
1168  9.13701640   0.254   0.91358   3.97439   7.35186   2.39424   0.00000   9.732E-01   2.500E-02   1.450E-03
1169  9.14246391   0.246   0.91740   3.97481   7.35349   2.40338   0.00000   9.713E-01   2.667E-02   1.483E-03
1170  9.14784394   0.238   0.92126   3.97523   7.35516   2.41248   0.00000   9.704E-01   2.859E-02   1.486E-03
1171  9.15315813   0.231   0.92516   3.97566   7.35686   2.42165   0.00000   9.685E-01   3.053E-02   1.535E-03
1172  9.15840809   0.223   0.92910   3.97610   7.35859   2.43083   0.00000   9.665E-01   3.249E-02   1.550E-03
1173  9.16359533   0.215   0.93309   3.97653   7.36035   2.44004   0.00000   9.645E-01   3.447E-02   1.575E-03
1174  9.16872135   0.207   0.93711   3.97697   7.36213   2.44927   0.00000   9.625E-01   3.647E-02   1.600E-03
1175  9.17378758   0.200   0.94117   3.97741   7.36396   2.45880   0.00000   9.595E-01   3.849E-02   1.625E-03
1176  9.17879538   0.192   0.94527   3.97785   7.36591   2.46992   0.00000   9.575E-01   4.053E-02   1.640E-03
1177  9.18374610   0.185   0.94939   3.97828   7.36801   2.48128   0.00000   9.548E-01   4.359E-02   1.650E-03
1178  9.18864101   0.177   0.95355   3.97870   7.37024   2.49259   0.00000   9.517E-01   4.665E-02   1.640E-03
1179  9.19348137   0.170   0.95775   3.97912   7.37261   2.50393   0.00000   9.485E-01   4.975E-02   1.670E-03
1180  9.19826838   0.162   0.96198   3.97952   7.37511   2.51525   0.00000   9.451E-01   5.371E-02   1.679E-03
1181  9.20300320   0.154   0.96624   3.97992   7.37774   2.52656   0.00000   9.410E-01   5.695E-02   1.700E-03
1182  9.20768695   0.146   0.97054   3.98029   7.38049   2.53785   0.00000   9.368E-01   6.124E-02   1.710E-03
1183  9.21232073   0.138   0.97487   3.98066   7.38337   2.54910   0.00000   9.322E-01   6.656E-02   1.710E-03
1184  9.21690559   0.130   0.97923   3.98101   7.38639   2.56033   0.00000   9.266E-01   7.136E-02   1.715E-03
1185  9.22144255   0.122   0.98361   3.98135   7.38954   2.57154   0.00000   9.211E-01   7.727E-02   1.720E-03
1186  9.22593261   0.114   0.98802   3.98166   7.39281   2.58273   0.00000   9.145E-01   8.350E-02   1.728E-03
1187  9.23037671   0.105   0.99244   3.98195   7.39619   2.59391   0.00000   9.078E-01   9.016E-02   1.720E-03
1188  9.23477581   0.096   0.99689   3.98222   7.39969   2.60507   0.00000   9.002E-01   9.804E-02   1.733E-03
1189  9.23913078   0.087   1.00136   3.98248   7.40321   2.61633   0.00000   8.920E-01   1.060E-01   1.740E-03
1190  9.24344253   0.078   1.00587   3.98271   7.40673   2.62773   0.00000   8.831E-01   1.149E-01   1.757E-03
1191  9.24771189   0.069   1.01042   3.98293   7.41017   2.63937   0.00000   8.740E-01   1.240E-01   1.760E-03
1192  9.24847322   0.068   1.01125   3.98297   7.41077   2.64150   0.00000   8.723E-01   1.257E-01   1.777E-03
1193  9.24923322   0.066   1.01207   3.98301   7.41138   2.64364   0.00000   8.707E-01   1.273E-01   1.793E-03
1194  9.24999190   0.064   1.01290   3.98305   7.41198   2.64578   0.00000   8.690E-01   1.290E-01   1.833E-03
1195  9.25074925   0.063   1.01373   3.98309   7.41259   2.64793   0.00000   8.672E-01   1.308E-01   1.890E-03
1196  9.25150528   0.061   1.01456   3.98313   7.41320   2.65010   0.00000   8.654E-01   1.326E-01   1.948E-03
1197  9.25226000   0.060   1.01541   3.98317   7.41379   2.65229   0.00000   8.636E-01   1.344E-01   2.009E-03
1198  9.25301340   0.058   1.01625   3.98322   7.41439   2.65449   0.00000   8.617E-01   1.363E-01   2.068E-03
1199  9.25376551   0.056   1.01709   3.98326   7.41497   2.65671   0.00000   8.597E-01   1.383E-01   2.117E-03
1200  9.25451631   0.055   1.01794   3.98330   7.41555   2.65893   0.00000   8.578E-01   1.402E-01   2.168E-03
1201  9.25526582   0.053   1.01879   3.98334   7.41611   2.66120   0.00000   8.562E-01   1.418E-01   2.236E-03
1202  9.25601403   0.052   1.01964   3.98338   7.41666   2.66347   0.00000   8.546E-01   1.433E-01   2.303E-03
1203  9.25676096   0.050   1.02050   3.98342   7.41719   2.66579   0.00000   8.524E-01   1.450E-01   2.369E-03
1204  9.25750661   0.049   1.02137   3.98347   7.41771   2.66811   0.00000   8.504E-01   1.469E-01   2.434E-03
1205  9.25825098   0.047   1.02223   3.98351   7.41822   2.67046   0.00000   8.486E-01   1.492E-01   2.497E-03
1206  9.25899408   0.046   1.02310   3.98355   7.41871   2.67284   0.00000   8.469E-01   1.511E-01   2.565E-03
1207  9.25973590   0.044   1.02398   3.98359   7.41919   2.67524   0.00000   8.451E-01   1.529E-01   2.637E-03
1208  9.26047646   0.043   1.02485   3.98363   7.41965   2.67768   0.00000   8.432E-01   1.542E-01   2.706E-03
1209  9.26121576   0.041   1.02574   3.98366   7.42009   2.68013   0.00000   8.413E-01   1.557E-01   2.771E-03
1210  9.26195381   0.040   1.02662   3.98370   7.42053   2.68261   0.00000   8.394E-01   1.576E-01   2.829E-03
1211  9.26269060   0.038   1.02752   3.98374   7.42094   2.68512   0.00000   8.374E-01   1.596E-01   2.900E-03
1212  9.26342614   0.037   1.02842   3.98378   7.42134   2.68764   0.00000   8.356E-01   1.614E-01   2.974E-03
1213  9.26416044   0.036   1.02932   3.98382   7.42172   2.69019   0.00000   8.342E-01   1.628E-01   3.050E-03
1214  9.26489350   0.034   1.03024   3.98387   7.42209   2.69278   0.00000   8.321E-01   1.649E-01   3.116E-03
1215  9.26562533   0.033   1.03115   3.98391   7.42244   2.69539   0.00000   8.303E-01   1.667E-01   3.181E-03
1216  9.26635593   0.032   1.03207   3.98394   7.42278   2.69800   0.00000   8.288E-01   1.682E-01   3.248E-03
1217  9.26708529   0.030   1.03300   3.98399   7.42311   2.70066   0.00000   8.265E-01   1.697E-01   3.323E-03
1218  9.26781344   0.029   1.03393   3.98403   7.42342   2.70333   0.00000   8.248E-01   1.712E-01   3.394E-03
1219  9.26854036   0.028   1.03486   3.98407   7.42371   2.70602   0.00000   8.232E-01   1.728E-01   3.457E-03
1220  9.26926608   0.027   1.03580   3.98412   7.42399   2.70872   0.00000   8.216E-01   1.744E-01   3.513E-03
1221  9.26999058   0.026   1.03675   3.98415   7.42427   2.71144   0.00000   8.200E-01   1.760E-01   3.569E-03
1222  9.27071387   0.025   1.03771   3.98419   7.42452   2.71418   0.00000   8.184E-01   1.776E-01   3.652E-03
1223  9.27143596   0.024   1.03867   3.98423   7.42476   2.71695   0.00000   8.167E-01   1.793E-01   3.722E-03
1224  9.27215685   0.023   1.03963   3.98428   7.42499   2.71973   0.00000   8.150E-01   1.810E-01   3.796E-03
1225  9.27287655   0.022   1.04060   3.98432   7.42521   2.72254   0.00000   8.132E-01   1.828E-01   3.866E-03
1226  9.27359506   0.021   1.04157   3.98436   7.42542   2.72536   0.00000   8.115E-01   1.845E-01   3.928E-03
1227  9.27431238   0.020   1.04255   3.98441   7.42561   2.72821   0.00000   8.097E-01   1.863E-01   3.987E-03
1228  9.27502852   0.019   1.04353   3.98445   7.42580   2.73105   0.00000   8.079E-01   1.881E-01   4.034E-03
1229  9.27574348   0.018   1.04451   3.98449   7.42598   2.73390   0.00000   8.070E-01   1.890E-01   4.098E-03
1230  9.27645726   0.017   1.04551   3.98454   7.42615   2.73679   0.00000   8.052E-01   1.908E-01   4.164E-03
1231  9.27716987   0.016   1.04651   3.98457   7.42631   2.73969   0.00000   8.033E-01   1.927E-01   4.221E-03
1232  9.27788132   0.016   1.04751   3.98462   7.42646   2.74260   0.00000   8.014E-01   1.938E-01   4.287E-03
1233  9.27859160   0.015   1.04853   3.98466   7.42660   2.74552   0.00000   8.002E-01   1.956E-01   4.355E-03
1234  9.27930072   0.014   1.04954   3.98471   7.42673   2.74847   0.00000   7.985E-01   1.968E-01   4.416E-03
1235  9.28000869   0.013   1.05057   3.98475   7.42686   2.75143   0.00000   7.972E-01   1.985E-01   4.476E-03
1236  9.28071550   0.013   1.05159   3.98479   7.42698   2.75439   0.00000   7.955E-01   2.005E-01   4.521E-03
1237  9.28142117   0.012   1.05262   3.98483   7.42710   2.75736   0.00000   7.934E-01   2.018E-01   4.570E-03
1238  9.28212569   0.011   1.05365   3.98487   7.42721   2.76034   0.00000   7.922E-01   2.037E-01   4.630E-03
1239  9.28282907   0.011   1.05468   3.98491   7.42732   2.76335   0.00000   7.903E-01   2.049E-01   4.692E-03
1240  9.28353131   0.010   1.05573   3.98496   7.42741   2.76635   0.00000   7.891E-01   2.069E-01   4.747E-03
1241  9.28423242   0.010   1.05678   3.98500   7.42751   2.76937   0.00000   7.870E-01   2.080E-01   4.800E-03
1242  9.28473561   0.009   1.05754   3.98503   7.42757   2.77155   0.00000   7.862E-01   2.088E-01   4.839E-03
1243  9.28523821   0.009   1.05830   3.98506   7.42763   2.77374   0.00000   7.849E-01   2.101E-01   4.878E-03
1244  9.28574024   0.009   1.05906   3.98509   7.42770   2.77594   0.00000   7.837E-01   2.113E-01   4.917E-03
1245  9.28624168   0.008   1.05983   3.98512   7.42776   2.77814   0.00000   7.827E-01   2.123E-01   4.956E-03
1246  9.28674255   0.008   1.06059   3.98515   7.42782   2.78033   0.00000   7.811E-01   2.139E-01   4.988E-03
1247  9.28724283   0.008   1.06136   3.98518   7.42787   2.78253   0.00000   7.802E-01   2.148E-01   5.028E-03
1248  9.28774255   0.007   1.06214   3.98521   7.42793   2.78474   0.00000   7.794E-01   2.156E-01   5.074E-03
1249  9.28824169   0.007   1.06291   3.98524   7.42799   2.78696   0.00000   7.782E-01   2.168E-01   5.119E-03
1250  9.28874025   0.007   1.06369   3.98527   7.42804   2.78918   0.00000   7.768E-01   2.182E-01   5.160E-03
1251  9.28923825   0.007   1.06447   3.98529   7.42809   2.79142   0.00000   7.759E-01   2.190E-01   5.202E-03
1252  9.28973567   0.006   1.06525   3.98533   7.42814   2.79365   0.00000   7.742E-01   2.199E-01   5.235E-03
1253  9.29023252   0.006   1.06603   3.98535   7.42819   2.79590   0.00000   7.733E-01   2.214E-01   5.269E-03
1254  9.29072881   0.006   1.06682   3.98538   7.42824   2.79816   0.00000   7.724E-01   2.226E-01   5.303E-03
1255  9.29122453   0.006   1.06761   3.98541   7.42828   2.80043   0.00000   7.711E-01   2.234E-01   5.337E-03
1256  9.29171969   0.005   1.06840   3.98544   7.42833   2.80270   0.00000   7.697E-01   2.246E-01   5.372E-03
1257  9.29221428   0.005   1.06920   3.98546   7.42838   2.80497   0.00000   7.688E-01   2.262E-01   5.408E-03
1258  9.29270831   0.005   1.07000   3.98549   7.42842   2.80724   0.00000   7.679E-01   2.270E-01   5.452E-03
1259  9.29320177   0.005   1.07079   3.98552   7.42847   2.80953   0.00000   7.662E-01   2.279E-01   5.496E-03
1260  9.29369468   0.004   1.07160   3.98554   7.42851   2.81183   0.00000   7.652E-01   2.296E-01   5.541E-03
1261  9.29418703   0.004   1.07241   3.98557   7.42856   2.81413   0.00000   7.643E-01   2.307E-01   5.585E-03
1262  9.29467882   0.004   1.07321   3.98559   7.42859   2.81643   0.00000   7.628E-01   2.316E-01   5.624E-03
1263  9.29517006   0.004   1.07402   3.98562   7.42864   2.81874   0.00000   7.615E-01   2.325E-01   5.661E-03
1264  9.29566073   0.004   1.07483   3.98564   7.42868   2.82105   0.00000   7.606E-01   2.339E-01   5.697E-03
1265  9.29615086   0.004   1.07565   3.98567   7.42873   2.82337   0.00000   7.593E-01   2.354E-01   5.738E-03
1266  9.29664043   0.003   1.07646   3.98570   7.42877   2.82570   0.00000   7.577E-01   2.363E-01   5.782E-03
1267  9.29712946   0.003   1.07729   3.98572   7.42881   2.82804   0.00000   7.568E-01   2.372E-01   5.819E-03
1268  9.29761793   0.003   1.07811   3.98574   7.42886   2.83039   0.00000   7.558E-01   2.383E-01   5.855E-03
1269  9.29810585   0.003   1.07893   3.98576   7.42890   2.83274   0.00000   7.548E-01   2.401E-01   5.885E-03
1270  9.29859323   0.003   1.07976   3.98579   7.42894   2.83511   0.00000   7.529E-01   2.411E-01   5.922E-03
1271  9.29908006   0.003   1.08059   3.98581   7.42898   2.83747   0.00000   7.520E-01   2.420E-01   5.952E-03
1272  9.29956634   0.003   1.08142   3.98583   7.42903   2.83984   0.00000   7.510E-01   2.430E-01   6.001E-03
1273  9.30005208   0.002   1.08225   3.98585   7.42907   2.84222   0.00000   7.490E-01   2.450E-01   6.050E-03
1274  9.30053728   0.002   1.08310   3.98587   7.42912   2.84461   0.00000   7.480E-01   2.460E-01   6.099E-03
1275  9.30102194   0.002   1.08394   3.98589   7.42916   2.84702   0.00000   7.470E-01   2.470E-01   6.158E-03
1276  9.30150605   0.002   1.08479   3.98591   7.42920   2.84944   0.00000   7.460E-01   2.480E-01   6.209E-03
1277  9.30198963   0.002   1.08564   3.98593   7.42925   2.85186   0.00000   7.440E-01   2.490E-01   6.259E-03
1278  9.30247267   0.002   1.08649   3.98595   7.42929   2.85429   0.00000   7.430E-01   2.510E-01   6.300E-03
1279  9.30295517   0.002   1.08735   3.98597   7.42934   2.85674   0.00000   7.420E-01   2.520E-01   6.341E-03
1280  9.30343714   0.002   1.08820   3.98599   7.42938   2.85919   0.00000   7.409E-01   2.531E-01   6.382E-03
1281  9.30391857   0.002   1.08906   3.98601   7.42943   2.86165   0.00000   7.398E-01   2.541E-01   6.414E-03
1282  9.30439947   0.002   1.08992   3.98602   7.42948   2.86411   0.00000   7.378E-01   2.552E-01   6.458E-03
1283  9.30487984   0.001   1.09078   3.98604   7.42953   2.86658   0.00000   7.368E-01   2.564E-01   6.511E-03
1284  9.30535967   0.001   1.09165   3.98606   7.42958   2.86906   0.00000   7.357E-01   2.583E-01   6.564E-03
1285  9.30583898   0.001   1.09252   3.98607   7.42963   2.87155   0.00000   7.343E-01   2.594E-01   6.618E-03
1286  9.30631776   0.001   1.09339   3.98608   7.42968   2.87405   0.00000   7.326E-01   2.604E-01   6.672E-03
1287  9.30679601   0.001   1.09427   3.98610   7.42973   2.87656   0.00000   7.315E-01   2.615E-01   6.727E-03
1288  9.30727374   0.001   1.09515   3.98612   7.42978   2.87909   0.00000   7.304E-01   2.626E-01   6.782E-03
1289  9.30775094   0.001   1.09603   3.98613   7.42983   2.88163   0.00000   7.292E-01   2.645E-01   6.830E-03
1290  9.30822762   0.001   1.09692   3.98614   7.42988   2.88418   0.00000   7.273E-01   2.659E-01   6.884E-03
1291  9.30870377   0.001   1.09780   3.98615   7.42994   2.88674   0.00000   7.260E-01   2.670E-01   6.920E-03
1292  9.31015706   0.001   1.10053   3.98619   7.43012   2.89465   0.00000   7.228E-01   2.712E-01   6.075E-03
1293  9.31160550   0.001   1.10327   3.98623   7.43029   2.90269   0.00000   7.201E-01   2.749E-01   5.295E-03
1294  9.31304913   0.001   1.10606   3.98625   7.43046   2.91089   0.00000   7.164E-01   2.786E-01   4.602E-03
1295  9.31448798   0.000   1.10888   3.98625   7.43063   2.91917   0.00000   7.133E-01   2.827E-01   3.998E-03
1296  9.31592207   0.000   1.11172   3.98625   7.43079   2.92761   0.00000   7.097E-01   2.864E-01   3.471E-03
1297  9.31735144   0.000   1.11459   3.98624   7.43094   2.93619   0.00000   7.067E-01   2.903E-01   2.994E-03
1298  9.31877613   0.000   1.11750   3.98622   7.43117   2.94476   0.00000   7.027E-01   2.943E-01   2.912E-03
1299  9.32019616   0.000   1.12043   3.98620   7.43146   2.95375   0.00000   6.978E-01   2.992E-01   2.941E-03
1300  9.32161155   0.000   1.12339   3.98618   7.43173   2.96288   0.00000   6.939E-01   3.031E-01   2.950E-03
1301  9.32302236   0.000   1.12639   3.98615   7.43203   2.97193   0.00000   6.885E-01   3.085E-01   2.950E-03
1302  9.32442859   0.000   1.12941   3.98610   7.43232   2.98118   0.00000   6.840E-01   3.130E-01   2.950E-03
1303  9.32583028   0.000   1.13248   3.98604   7.43262   2.99046   0.00000   6.794E-01   3.176E-01   2.940E-03
1304  9.32722747   0.000   1.13558   3.98598   7.43292   2.99998   0.00000   6.748E-01   3.222E-01   2.946E-03
1305  9.32862017   0.000   1.13873   3.98590   7.43326   3.00967   0.00000   6.701E-01   3.269E-01   2.909E-03
1306  9.33000842   0.000   1.14191   3.98581   7.43362   3.01958   0.00000   6.654E-01   3.316E-01   2.898E-03
1307  9.33139225   0.000   1.14514   3.98569   7.43401   3.02992   0.00000   6.598E-01   3.372E-01   2.858E-03
1308  9.33277168   0.000   1.14842   3.98558   7.43441   3.04031   0.00000   6.547E-01   3.423E-01   2.903E-03
1309  9.33414675   0.000   1.15173   3.98544   7.43479   3.05091   0.00000   6.498E-01   3.473E-01   2.879E-03
1310  9.33551748   0.000   1.15510   3.98529   7.43526   3.06180   0.00000   6.441E-01   3.532E-01   2.885E-03
1311  9.33688389   0.000   1.15852   3.98512   7.43568   3.07297   0.00000   6.387E-01   3.583E-01   2.889E-03
1312  9.33824602   0.000   1.16200   3.98493   7.43614   3.08430   0.00000   6.325E-01   3.645E-01   2.910E-03
1313  9.33960388   0.000   1.16550   3.98470   7.43676   3.09639   0.00000   6.273E-01   3.706E-01   2.865E-03
1314  9.34095752   0.000   1.16910   3.98446   7.43725   3.10850   0.00000   6.210E-01   3.760E-01   2.936E-03
1315  9.34230695   0.000   1.17273   3.98421   7.43776   3.12082   0.00000   6.146E-01   3.824E-01   2.951E-03
1316  9.34365220   0.000   1.17644   3.98393   7.43833   3.13349   0.00000   6.088E-01   3.882E-01   2.933E-03
1317  9.34499330   0.000   1.18020   3.98361   7.43896   3.14659   0.00000   6.023E-01   3.947E-01   2.975E-03
1318  9.34633027   0.000   1.18403   3.98328   7.43956   3.16002   0.00000   5.957E-01   4.013E-01   2.988E-03
1319  9.34766313   0.000   1.18793   3.98290   7.44025   3.17379   0.00000   5.890E-01   4.080E-01   2.970E-03
1320  9.34899192   0.000   1.19192   3.98250   7.44093   3.18810   0.00000   5.821E-01   4.149E-01   3.029E-03
1321  9.35031665   0.000   1.19597   3.98204   7.44172   3.20293   0.00000   5.741E-01   4.229E-01   3.019E-03
1322  9.35163735   0.000   1.20011   3.98155   7.44249   3.21822   0.00000   5.669E-01   4.301E-01   3.050E-03
1323  9.35295405   0.000   1.20435   3.98101   7.44332   3.23421   0.00000   5.595E-01   4.375E-01   3.026E-03
1324  9.35426677   0.000   1.20869   3.98042   7.44418   3.25074   0.00000   5.512E-01   4.458E-01   3.103E-03
1325  9.35557554   0.000   1.21313   3.97977   7.44509   3.26800   0.00000   5.431E-01   4.539E-01   3.110E-03
1326  9.35688037   0.000   1.21767   3.97906   7.44607   3.28596   0.00000   5.351E-01   4.619E-01   3.133E-03
1327  9.35818130   0.000   1.22232   3.97827   7.44710   3.30476   0.00000   5.260E-01   4.710E-01   3.140E-03
1328  9.35947833   0.000   1.22709   3.97742   7.44818   3.32440   0.00000   5.175E-01   4.795E-01   3.114E-03
1329  9.36077151   0.000   1.23197   3.97647   7.44937   3.34495   0.00000   5.078E-01   4.892E-01   3.050E-03
1330  9.36206085   0.000   1.23700   3.97541   7.45062   3.36663   0.00000   4.979E-01   4.991E-01   3.042E-03
1331  9.36334637   0.000   1.24216   3.97423   7.45198   3.38939   0.00000   4.877E-01   5.093E-01   3.023E-03
1332  9.36462809   0.000   1.24748   3.97291   7.45345   3.41355   0.00000   4.772E-01   5.203E-01   2.954E-03
1333  9.36590605   0.000   1.25296   3.97143   7.45504   3.43901   0.00000   4.653E-01   5.317E-01   2.928E-03
1334  9.36718026   0.000   1.25861   3.96978   7.45681   3.46612   0.00000   4.532E-01   5.438E-01   2.863E-03
1335  9.36845073   0.000   1.26447   3.96792   7.45877   3.49501   0.00000   4.406E-01   5.564E-01   2.817E-03
1336  9.36971751   0.000   1.27056   3.96580   7.46100   3.52583   0.00000   4.267E-01   5.705E-01   2.823E-03
1337  9.37098059   0.000   1.27689   3.96337   7.46350   3.55906   0.00000   4.121E-01   5.849E-01   2.690E-03
1338  9.37224002   0.000   1.28349   3.96059   7.46643   3.59499   0.00000   3.968E-01   6.010E-01   2.635E-03
1339  9.37349580   0.000   1.29039   3.95734   7.46986   3.63409   0.00000   3.798E-01   6.172E-01   2.478E-03
1340  9.37474797   0.000   1.29766   3.95353   7.47396   3.67679   0.00000   3.619E-01   6.354E-01   2.409E-03
1341  9.37599653   1.000   1.30531   3.94896   7.47896   3.72384   0.00000   3.420E-01   6.560E-01   2.160E-03
