 # M = 0.75 Mo, Y = 0.2300, Z = 2.00000E-04, alpha = 1.20, X_D = 4.0E-05
 # Solar Mixture: Asplund et al. (2005)         
 # ------------------------------------------------------------------------------------------------------------
 # NMD   LOG AGE    Xc      LOG L     LOG TE    LOG Tc   LOG RHOc    M-CC       L-PP       L-CNO       L-GRA
 #        (yr)              (Lo)        (K)       (K)   (gr/cm^3)    (Mo)        (L)         (L)         (L)
 # ------------------------------------------------------------------------------------------------------------
   1  5.05937979   0.770   0.98859   3.68415   6.10443  -1.10902   0.00000   9.350E-01   0.000E+00   6.460E-02
   2  5.13454048   0.770   0.98310   3.68429   6.10737  -1.10021   0.00000   9.388E-01   0.000E+00   6.098E-02
   3  5.19859248   0.770   0.97762   3.68442   6.11031  -1.09139   0.00000   9.426E-01   0.000E+00   5.735E-02
   4  5.25440060   0.770   0.97240   3.68456   6.11310  -1.08301   0.00000   9.455E-01   0.000E+00   5.458E-02
   5  5.30384696   0.770   0.96762   3.68468   6.11566  -1.07532   0.00000   9.470E-01   0.000E+00   5.321E-02
   6  5.34823469   0.770   0.96284   3.68480   6.11822  -1.06764   0.00000   9.484E-01   0.000E+00   5.184E-02
   7  5.38850343   0.770   0.95806   3.68492   6.12078  -1.05995   0.00000   9.498E-01   0.000E+00   5.047E-02
   8  5.42535315   0.770   0.95337   3.68503   6.12328  -1.05245   0.00000   9.496E-01   0.000E+00   5.061E-02
   9  5.45931926   0.770   0.94870   3.68514   6.12577  -1.04497   0.00000   9.491E-01   0.000E+00   5.096E-02
  10  5.49082050   0.770   0.94403   3.68525   6.12826  -1.03749   0.00000   9.486E-01   0.000E+00   5.131E-02
  11  5.52019053   0.770   0.93935   3.68537   6.13075  -1.03002   0.00000   9.481E-01   0.000E+00   5.166E-02
  12  5.54769955   0.770   0.93443   3.68549   6.13339  -1.02212   0.00000   9.467E-01   0.000E+00   5.317E-02
  13  5.57356941   0.770   0.92946   3.68561   6.13604  -1.01416   0.00000   9.452E-01   0.000E+00   5.484E-02
  14  5.59798451   0.770   0.92450   3.68573   6.13869  -1.00621   0.00000   9.438E-01   0.000E+00   5.651E-02
  15  5.62109980   0.770   0.91954   3.68585   6.14134  -0.99826   0.00000   9.423E-01   0.000E+00   5.817E-02
  16  5.64304670   0.770   0.91400   3.68597   6.14428  -0.98943   0.00000   9.393E-01   0.000E+00   6.116E-02
  17  5.66393767   0.770   0.90833   3.68610   6.14729  -0.98039   0.00000   9.359E-01   0.000E+00   6.448E-02
  18  5.68386968   0.770   0.90266   3.68623   6.15030  -0.97135   0.00000   9.325E-01   0.000E+00   6.779E-02
  19  5.70292690   0.770   0.89698   3.68636   6.15331  -0.96232   0.00000   9.291E-01   0.000E+00   7.111E-02
  20  5.72118291   0.770   0.89020   3.68650   6.15690  -0.95154   0.00000   9.229E-01   0.000E+00   7.719E-02
  21  5.73870236   0.770   0.88339   3.68665   6.16051  -0.94071   0.00000   9.167E-01   0.000E+00   8.336E-02
  22  5.75554240   0.770   0.87658   3.68679   6.16412  -0.92988   0.00000   9.104E-01   0.000E+00   8.952E-02
  23  5.77175376   0.770   0.86875   3.68696   6.16826  -0.91745   0.00000   9.012E-01   0.000E+00   9.873E-02
  24  5.78738170   0.770   0.86028   3.68714   6.17273  -0.90402   0.00000   8.901E-01   0.000E+00   1.098E-01
  25  5.80246674   0.770   0.85182   3.68732   6.17721  -0.89059   0.00000   8.790E-01   0.000E+00   1.210E-01
  26  5.81704536   0.770   0.84152   3.68752   6.18264  -0.87429   0.00000   8.603E-01   0.000E+00   1.397E-01
  27  5.83115044   0.770   0.83080   3.68774   6.18828  -0.85734   0.00000   8.399E-01   0.000E+00   1.601E-01
  28  5.84481180   0.770   0.81848   3.68797   6.19475  -0.83791   0.00000   8.111E-01   0.000E+00   1.889E-01
  29  5.85805648   0.770   0.80492   3.68822   6.20186  -0.81656   0.00000   7.758E-01   0.000E+00   2.242E-01
  30  5.87090917   0.770   0.78883   3.68850   6.21029  -0.79128   0.00000   7.241E-01   0.000E+00   2.759E-01
  31  5.88339240   0.770   0.77077   3.68880   6.21972  -0.76302   0.00000   6.583E-01   0.000E+00   3.417E-01
  32  5.89552682   0.770   0.74986   3.68912   6.23058  -0.73043   0.00000   5.703E-01   0.000E+00   4.297E-01
  33  5.90733139   0.770   0.72577   3.68947   6.24303  -0.69305   0.00000   4.585E-01   0.000E+00   5.415E-01
  34  5.91882358   0.770   0.69891   3.68982   6.25688  -0.65150   0.00000   3.344E-01   0.000E+00   6.656E-01
  35  5.93001948   0.770   0.67024   3.69015   6.27160  -0.60734   0.00000   2.154E-01   0.000E+00   7.846E-01
  36  5.94093400   0.770   0.64094   3.69043   6.28652  -0.56257   0.00000   1.251E-01   0.000E+00   8.749E-01
  37  5.95158093   0.770   0.61234   3.69066   6.30110  -0.51896   0.00000   6.381E-02   0.000E+00   9.362E-01
  38  5.96197308   0.770   0.58526   3.69083   6.31475  -0.47802   0.00000   3.130E-02   0.000E+00   9.687E-01
  39  5.97212236   0.770   0.55992   3.69095   6.32744  -0.43995   0.00000   1.480E-02   0.000E+00   9.852E-01
  40  5.98203985   0.770   0.53626   3.69103   6.33919  -0.40464   0.00000   6.852E-03   0.000E+00   9.931E-01
  41  5.99173592   0.770   0.51417   3.69107   6.35011  -0.37185   0.00000   3.000E-03   0.000E+00   9.970E-01
  42  6.00996207   0.770   0.47541   3.69107   6.36913  -0.31468   0.00000   9.428E-04   0.000E+00   9.991E-01
  43  6.02745402   0.770   0.44102   3.69102   6.38591  -0.26424   0.00000   0.000E+00   0.000E+00   1.000E+00
  44  6.04426865   0.770   0.41019   3.69094   6.40089  -0.21925   0.00000   0.000E+00   0.000E+00   1.000E+00
  45  6.06045645   0.770   0.38201   3.69083   6.41452  -0.17827   0.00000   0.000E+00   0.000E+00   1.000E+00
  46  6.07606250   0.770   0.35647   3.69071   6.42683  -0.14127   0.00000   0.000E+00   0.000E+00   1.000E+00
  47  6.09112715   0.770   0.33280   3.69058   6.43820  -0.10707   0.00000   0.000E+00   0.000E+00   1.000E+00
  48  6.10568671   0.770   0.31081   3.69044   6.44874  -0.07539   0.00000   0.000E+00   0.000E+00   1.000E+00
  49  6.11977397   0.770   0.29031   3.69029   6.45854  -0.04592   0.00000   0.000E+00   0.000E+00   1.000E+00
  50  6.13341859   0.770   0.27115   3.69015   6.46759  -0.01830   0.00000   0.000E+00   0.000E+00   1.000E+00
  51  6.14664755   0.770   0.25316   3.69002   6.47590   0.00775   0.00000   0.000E+00   0.000E+00   1.000E+00
  52  6.15948544   0.770   0.23622   3.68987   6.48360   0.03247   0.00000   0.000E+00   0.000E+00   1.000E+00
  53  6.17195470   0.770   0.22018   3.68973   6.49077   0.05598   0.00000   0.000E+00   0.000E+00   1.000E+00
  54  6.18407592   0.770   0.20495   3.68959   6.49750   0.07845   0.00000   0.000E+00   0.000E+00   1.000E+00
  55  6.19586800   0.770   0.19042   3.68946   6.50385   0.10000   0.00000   0.000E+00   0.000E+00   1.000E+00
  56  6.20734834   0.770   0.17651   3.68933   6.50986   0.12073   0.00000   0.000E+00   0.000E+00   1.000E+00
  57  6.21853301   0.770   0.16342   3.68919   6.51545   0.14038   0.00000   0.000E+00   0.000E+00   1.000E+00
  58  6.22943684   0.770   0.15080   3.68907   6.52081   0.15943   0.00000   0.000E+00   0.000E+00   1.000E+00
  59  6.24007361   0.770   0.13859   3.68894   6.52597   0.17797   0.00000   0.000E+00   0.000E+00   1.000E+00
  60  6.25045607   0.770   0.12712   3.68882   6.53076   0.19553   0.00000   0.000E+00   0.000E+00   1.000E+00
  61  6.26059612   0.770   0.11591   3.68870   6.53543   0.21274   0.00000   0.000E+00   0.000E+00   1.000E+00
  62  6.27050480   0.770   0.10519   3.68859   6.53988   0.22933   0.00000   0.000E+00   0.000E+00   1.000E+00
  63  6.28019244   0.770   0.09488   3.68847   6.54414   0.24539   0.00000   0.000E+00   0.000E+00   1.000E+00
  64  6.28966869   0.770   0.08485   3.68836   6.54827   0.26109   0.00000   0.000E+00   0.000E+00   1.000E+00
  65  6.29894258   0.770   0.07530   3.68825   6.55220   0.27617   0.00000   0.000E+00   0.000E+00   1.000E+00
  66  6.30802256   0.770   0.06592   3.68815   6.55604   0.29103   0.00000   0.000E+00   0.000E+00   1.000E+00
  67  6.31691659   0.770   0.05700   3.68805   6.55970   0.30530   0.00000   0.000E+00   0.000E+00   1.000E+00
  68  6.32563213   0.770   0.04825   3.68796   6.56328   0.31936   0.00000   0.000E+00   0.000E+00   1.000E+00
  69  6.33417619   0.770   0.03985   3.68786   6.56672   0.33296   0.00000   0.000E+00   0.000E+00   1.000E+00
  70  6.34255540   0.770   0.03168   3.68777   6.57006   0.34627   0.00000   0.000E+00   0.000E+00   1.000E+00
  71  6.35077600   0.770   0.02368   3.68769   6.57333   0.35934   0.00000   0.000E+00   0.000E+00   1.000E+00
  72  6.35884388   0.770   0.01607   3.68761   6.57645   0.37193   0.00000   0.000E+00   0.000E+00   1.000E+00
  73  6.36676462   0.770   0.00846   3.68753   6.57958   0.38452   0.00000   0.000E+00   0.000E+00   1.000E+00
  74  6.37454348   0.770   0.00130   3.68745   6.58252   0.39651   0.00000   0.000E+00   0.000E+00   1.000E+00
  75  6.38218545   0.770  -0.00578   3.68738   6.58543   0.40842   0.00000   0.000E+00   0.000E+00   1.000E+00
  76  6.38969528   0.770  -0.01274   3.68730   6.58830   0.42017   0.00000   0.000E+00   0.000E+00   1.000E+00
  77  6.39707745   0.770  -0.01933   3.68724   6.59103   0.43144   0.00000   0.000E+00   0.000E+00   1.000E+00
  78  6.40433623   0.770  -0.02591   3.68718   6.59377   0.44271   0.00000   0.000E+00   0.000E+00   1.000E+00
  79  6.41147568   0.770  -0.03229   3.68711   6.59642   0.45371   0.00000   0.000E+00   0.000E+00   1.000E+00
  80  6.41849966   0.770  -0.03840   3.68706   6.59898   0.46437   0.00000   0.000E+00   0.000E+00   1.000E+00
  81  6.42541185   0.770  -0.04451   3.68700   6.60153   0.47502   0.00000   0.000E+00   0.000E+00   1.000E+00
  82  6.43221574   0.770  -0.05041   3.68695   6.60401   0.48541   0.00000   0.000E+00   0.000E+00   1.000E+00
  83  6.43891468   0.770  -0.05609   3.68689   6.60641   0.49550   0.00000   0.000E+00   0.000E+00   1.000E+00
  84  6.44551186   0.770  -0.06176   3.68684   6.60881   0.50559   0.00000   0.000E+00   0.000E+00   1.000E+00
  85  6.45201032   0.770  -0.06729   3.68680   6.61116   0.51549   0.00000   0.000E+00   0.000E+00   1.000E+00
  86  6.45841298   0.770  -0.07255   3.68675   6.61342   0.52505   0.00000   0.000E+00   0.000E+00   1.000E+00
  87  6.46472261   0.770  -0.07781   3.68671   6.61567   0.53461   0.00000   0.000E+00   0.000E+00   1.000E+00
  88  6.47094189   0.770  -0.08306   3.68667   6.61793   0.54415   0.00000   0.000E+00   0.000E+00   1.000E+00
  89  6.47707335   0.770  -0.08792   3.68664   6.62005   0.55321   0.00000   0.000E+00   0.000E+00   1.000E+00
  90  6.48311946   0.770  -0.09279   3.68661   6.62218   0.56227   0.00000   0.000E+00   0.000E+00   1.000E+00
  91  6.48908255   0.770  -0.09766   3.68658   6.62431   0.57133   0.00000   0.000E+00   0.000E+00   1.000E+00
  92  6.49496487   0.770  -0.10234   3.68655   6.62638   0.58015   0.00000   0.000E+00   0.000E+00   1.000E+00
  93  6.50076858   0.770  -0.10684   3.68653   6.62838   0.58874   0.00000   0.000E+00   0.000E+00   1.000E+00
  94  6.50649575   0.770  -0.11134   3.68651   6.63039   0.59734   0.00000   0.000E+00   0.000E+00   1.000E+00
  95  6.51214838   0.770  -0.11584   3.68648   6.63240   0.60593   0.00000   0.000E+00   0.000E+00   1.000E+00
  96  6.51772839   0.770  -0.12006   3.68647   6.63432   0.61416   0.00000   0.000E+00   0.000E+00   1.000E+00
  97  6.52323760   0.770  -0.12422   3.68645   6.63622   0.62232   0.00000   0.000E+00   0.000E+00   1.000E+00
  98  6.52867780   0.770  -0.12838   3.68644   6.63812   0.63047   0.00000   0.000E+00   0.000E+00   1.000E+00
  99  6.53405070   0.770  -0.13254   3.68642   6.64002   0.63863   0.00000   0.000E+00   0.000E+00   1.000E+00
 100  6.53935794   0.770  -0.13640   3.68642   6.64183   0.64642   0.00000   0.000E+00   0.000E+00   1.000E+00
 101  6.54460111   0.770  -0.14023   3.68642   6.64363   0.65417   0.00000   0.000E+00   0.000E+00   1.000E+00
 102  6.54978173   0.770  -0.14407   3.68641   6.64543   0.66191   0.00000   0.000E+00   0.000E+00   1.000E+00
 103  6.55490128   0.770  -0.14790   3.68641   6.64723   0.66966   0.00000   0.000E+00   0.000E+00   1.000E+00
 104  6.55996118   0.770  -0.15150   3.68641   6.64896   0.67712   0.00000   0.000E+00   0.000E+00   1.000E+00
 105  6.56496280   0.770  -0.15502   3.68642   6.65067   0.68449   0.00000   0.000E+00   0.000E+00   1.000E+00
 106  6.56990748   0.770  -0.15855   3.68642   6.65238   0.69185   0.00000   0.000E+00   0.000E+00   1.000E+00
 107  6.57479650   0.770  -0.16207   3.68643   6.65409   0.69922   0.00000   0.000E+00   0.000E+00   1.000E+00
 108  6.57963109   0.770  -0.16548   3.68644   6.65576   0.70644   0.00000   0.000E+00   0.000E+00   1.000E+00
 109  6.58441245   0.770  -0.16873   3.68645   6.65739   0.71345   0.00000   0.000E+00   0.000E+00   1.000E+00
 110  6.58914175   0.770  -0.17197   3.68646   6.65902   0.72047   0.00000   0.000E+00   0.000E+00   1.000E+00
 111  6.59382010   0.770  -0.17522   3.68648   6.66064   0.72748   0.00000   0.000E+00   0.000E+00   1.000E+00
 112  6.59844859   0.770  -0.17847   3.68649   6.66227   0.73450   0.00000   0.000E+00   0.000E+00   1.000E+00
 113  6.60302827   0.770  -0.18147   3.68651   6.66383   0.74123   0.00000   0.000E+00   0.000E+00   1.000E+00
 114  6.60756016   0.770  -0.18444   3.68654   6.66538   0.74791   0.00000   0.000E+00   0.000E+00   1.000E+00
 115  6.61204525   0.770  -0.18740   3.68657   6.66694   0.75460   0.00000   0.000E+00   0.000E+00   1.000E+00
 116  6.61648449   0.770  -0.19036   3.68659   6.66849   0.76128   0.00000   0.000E+00   0.000E+00   1.000E+00
 117  6.62087882   0.770  -0.19331   3.68662   6.67003   0.76794   0.00000   0.000E+00   0.000E+00   1.000E+00
 118  6.62522912   0.770  -0.19602   3.68666   6.67152   0.77432   0.00000   0.000E+00   0.000E+00   1.000E+00
 119  6.62953629   0.770  -0.19873   3.68670   6.67300   0.78069   0.00000   0.000E+00   0.000E+00   1.000E+00
 120  6.63380115   0.770  -0.20144   3.68674   6.67448   0.78707   0.00000   0.000E+00   0.000E+00   1.000E+00
 121  6.63802454   0.770  -0.20415   3.68677   6.67597   0.79344   0.00000   0.000E+00   0.000E+00   1.000E+00
 122  6.64220725   0.770  -0.20685   3.68681   6.67745   0.79980   0.00000   0.000E+00   0.000E+00   1.000E+00
 123  6.64635007   0.770  -0.20931   3.68686   6.67887   0.80589   0.00000   0.000E+00   0.000E+00   1.000E+00
 124  6.65045374   0.770  -0.21177   3.68691   6.68029   0.81198   0.00000   0.000E+00   0.000E+00   1.000E+00
 125  6.65451899   0.770  -0.21424   3.68695   6.68171   0.81806   0.00000   0.000E+00   0.000E+00   1.000E+00
 126  6.65854654   0.770  -0.21670   3.68700   6.68313   0.82415   0.00000   0.000E+00   0.000E+00   1.000E+00
 127  6.66253709   0.770  -0.21917   3.68705   6.68455   0.83024   0.00000   0.000E+00   0.000E+00   1.000E+00
 128  6.66649130   0.770  -0.22146   3.68711   6.68593   0.83611   0.00000   0.000E+00   0.000E+00   1.000E+00
 129  6.67040984   0.770  -0.22369   3.68717   6.68729   0.84193   0.00000   0.000E+00   0.000E+00   1.000E+00
 130  6.67429333   0.770  -0.22593   3.68723   6.68865   0.84775   0.00000   0.000E+00   0.000E+00   1.000E+00
 131  6.67814241   0.770  -0.22817   3.68729   6.69002   0.85357   0.00000   0.000E+00   0.000E+00   1.000E+00
 132  6.68195767   0.770  -0.23040   3.68735   6.69138   0.85939   0.00000   0.000E+00   0.000E+00   1.000E+00
 133  6.68573970   0.770  -0.23258   3.68741   6.69273   0.86514   0.00000   0.000E+00   0.000E+00   1.000E+00
 134  6.68948909   0.770  -0.23460   3.68748   6.69404   0.87071   0.00000   0.000E+00   0.000E+00   1.000E+00
 135  6.69320638   0.770  -0.23662   3.68755   6.69535   0.87627   0.00000   0.000E+00   0.000E+00   1.000E+00
 136  6.69689212   0.770  -0.23864   3.68762   6.69666   0.88184   0.00000   0.000E+00   0.000E+00   1.000E+00
 137  6.70054685   0.770  -0.24065   3.68769   6.69797   0.88741   0.00000   0.000E+00   0.000E+00   1.000E+00
 138  6.70417108   0.770  -0.24267   3.68775   6.69928   0.89298   0.00000   0.000E+00   0.000E+00   1.000E+00
 139  6.70776531   0.770  -0.24459   3.68783   6.70057   0.89843   0.00000   0.000E+00   0.000E+00   1.000E+00
 140  6.71133004   0.770  -0.24640   3.68791   6.70183   0.90376   0.00000   0.000E+00   0.000E+00   1.000E+00
 141  6.71486575   0.770  -0.24821   3.68799   6.70310   0.90910   0.00000   0.000E+00   0.000E+00   1.000E+00
 142  6.71837291   0.770  -0.25003   3.68807   6.70436   0.91443   0.00000   0.000E+00   0.000E+00   1.000E+00
 143  6.72185197   0.770  -0.25184   3.68815   6.70562   0.91976   0.00000   0.000E+00   0.000E+00   1.000E+00
 144  6.72530338   0.770  -0.25365   3.68823   6.70689   0.92509   0.00000   0.000E+00   0.000E+00   1.000E+00
 145  6.72872758   0.770  -0.25537   3.68831   6.70813   0.93032   0.00000   7.615E-05   0.000E+00   9.999E-01
 146  6.73212499   0.770  -0.25699   3.68840   6.70935   0.93544   0.00000   2.356E-04   0.000E+00   9.998E-01
 147  6.73549604   0.770  -0.25861   3.68850   6.71057   0.94056   0.00000   3.950E-04   0.000E+00   9.996E-01
 148  6.73884111   0.770  -0.26023   3.68859   6.71179   0.94568   0.00000   5.545E-04   0.000E+00   9.994E-01
 149  6.74216062   0.770  -0.26185   3.68868   6.71300   0.95080   0.00000   7.139E-04   0.000E+00   9.993E-01
 150  6.74545495   0.770  -0.26346   3.68877   6.71422   0.95591   0.00000   8.734E-04   0.000E+00   9.991E-01
 151  6.74872448   0.770  -0.26505   3.68886   6.71543   0.96099   0.00000   1.000E-03   0.000E+00   9.990E-01
 152  6.75196957   0.770  -0.26648   3.68896   6.71661   0.96591   0.00000   1.000E-03   0.000E+00   9.990E-01
 153  6.75519060   0.770  -0.26792   3.68907   6.71779   0.97082   0.00000   1.000E-03   0.000E+00   9.990E-01
 154  6.75838792   0.770  -0.26935   3.68917   6.71898   0.97574   0.00000   1.000E-03   0.000E+00   9.990E-01
 155  6.76156187   0.770  -0.27079   3.68927   6.72016   0.98065   0.00000   1.000E-03   0.000E+00   9.990E-01
 156  6.76471279   0.770  -0.27222   3.68937   6.72134   0.98557   0.00000   1.000E-03   0.000E+00   9.990E-01
 157  6.76784101   0.770  -0.27366   3.68948   6.72252   0.99048   0.00000   1.000E-03   0.000E+00   9.990E-01
 158  6.77094686   0.770  -0.27497   3.68958   6.72367   0.99527   0.00000   1.000E-03   0.000E+00   9.990E-01
 159  6.77403066   0.770  -0.27623   3.68970   6.72482   1.00001   0.00000   1.000E-03   0.000E+00   9.990E-01
 160  6.77709272   0.770  -0.27749   3.68981   6.72596   1.00474   0.00000   1.000E-03   0.000E+00   9.990E-01
 161  6.78013333   0.770  -0.27875   3.68992   6.72711   1.00947   0.00000   1.000E-03   0.000E+00   9.990E-01
 162  6.78315281   0.770  -0.28001   3.69003   6.72825   1.01420   0.00000   1.000E-03   0.000E+00   9.990E-01
 163  6.78615144   0.770  -0.28127   3.69014   6.72939   1.01893   0.00000   1.000E-03   0.000E+00   9.990E-01
 164  6.78912951   0.770  -0.28253   3.69025   6.73054   1.02366   0.00000   1.000E-03   0.000E+00   9.990E-01
 165  6.79208729   0.770  -0.28365   3.69037   6.73165   1.02823   0.00000   1.000E-03   0.000E+00   9.990E-01
 166  6.79502507   0.770  -0.28475   3.69049   6.73276   1.03279   0.00000   1.000E-03   0.000E+00   9.990E-01
 167  6.79794310   0.770  -0.28585   3.69061   6.73387   1.03734   0.00000   1.000E-03   0.000E+00   9.990E-01
 168  6.80084167   0.770  -0.28695   3.69074   6.73498   1.04189   0.00000   1.000E-03   0.000E+00   9.990E-01
 169  6.80372101   0.770  -0.28805   3.69086   6.73609   1.04645   0.00000   1.000E-03   0.000E+00   9.990E-01
 170  6.80658139   0.770  -0.28915   3.69098   6.73720   1.05100   0.00000   1.000E-03   0.000E+00   9.990E-01
 171  6.80942305   0.770  -0.29025   3.69110   6.73831   1.05556   0.00000   1.000E-03   0.000E+00   9.990E-01
 172  6.81224624   0.770  -0.29121   3.69123   6.73940   1.05997   0.00000   1.000E-03   0.000E+00   9.990E-01
 173  6.81505120   0.770  -0.29215   3.69136   6.74048   1.06436   0.00000   1.000E-03   0.000E+00   9.990E-01
 174  6.81783816   0.770  -0.29310   3.69149   6.74156   1.06876   0.00000   1.000E-03   0.000E+00   9.990E-01
 175  6.82060734   0.770  -0.29404   3.69162   6.74264   1.07315   0.00000   1.000E-03   0.000E+00   9.990E-01
 176  6.82335899   0.770  -0.29498   3.69175   6.74372   1.07754   0.00000   1.000E-03   0.000E+00   9.990E-01
 177  6.82609330   0.770  -0.29592   3.69188   6.74480   1.08193   0.00000   1.000E-03   0.000E+00   9.990E-01
 178  6.82881051   0.770  -0.29687   3.69201   6.74588   1.08632   0.00000   1.000E-03   0.000E+00   9.990E-01
 179  6.83151083   0.770  -0.29773   3.69215   6.74694   1.09063   0.00000   1.073E-03   0.000E+00   9.989E-01
 180  6.83419445   0.770  -0.29853   3.69229   6.74800   1.09487   0.00000   1.205E-03   0.000E+00   9.988E-01
 181  6.83686160   0.770  -0.29932   3.69242   6.74905   1.09911   0.00000   1.338E-03   0.000E+00   9.987E-01
 182  6.83951247   0.770  -0.30012   3.69256   6.75010   1.10335   0.00000   1.470E-03   0.000E+00   9.985E-01
 183  6.84214725   0.770  -0.30092   3.69270   6.75116   1.10759   0.00000   1.603E-03   0.000E+00   9.984E-01
 184  6.84476615   0.770  -0.30172   3.69284   6.75221   1.11183   0.00000   1.735E-03   0.000E+00   9.983E-01
 185  6.84736935   0.770  -0.30251   3.69298   6.75327   1.11607   0.00000   1.868E-03   0.000E+00   9.981E-01
 186  6.84995704   0.770  -0.30331   3.69312   6.75432   1.12031   0.00000   2.000E-03   0.000E+00   9.980E-01
 187  6.85252940   0.770  -0.30396   3.69327   6.75535   1.12441   0.00000   2.000E-03   0.000E+00   9.980E-01
 188  6.85508661   0.770  -0.30460   3.69342   6.75638   1.12851   0.00000   2.000E-03   0.000E+00   9.980E-01
 189  6.85762886   0.770  -0.30525   3.69357   6.75741   1.13261   0.00000   2.000E-03   0.000E+00   9.980E-01
 190  6.86015631   0.770  -0.30589   3.69372   6.75844   1.13671   0.00000   2.000E-03   0.000E+00   9.980E-01
 191  6.86266913   0.770  -0.30654   3.69387   6.75947   1.14081   0.00000   2.000E-03   0.000E+00   9.980E-01
 192  6.86516750   0.770  -0.30718   3.69402   6.76050   1.14491   0.00000   2.000E-03   0.000E+00   9.980E-01
 193  6.86765158   0.770  -0.30783   3.69417   6.76153   1.14902   0.00000   2.000E-03   0.000E+00   9.980E-01
 194  6.87012153   0.770  -0.30845   3.69432   6.76255   1.15309   0.00000   2.000E-03   0.000E+00   9.980E-01
 195  6.87257752   0.770  -0.30895   3.69448   6.76356   1.15705   0.00000   2.000E-03   0.000E+00   9.980E-01
 196  6.87501969   0.770  -0.30946   3.69464   6.76457   1.16102   0.00000   2.000E-03   0.000E+00   9.980E-01
 197  6.87744821   0.770  -0.30997   3.69480   6.76557   1.16499   0.00000   2.000E-03   0.000E+00   9.980E-01
 198  6.87986322   0.770  -0.31047   3.69496   6.76658   1.16895   0.00000   2.000E-03   0.000E+00   9.980E-01
 199  6.88226488   0.770  -0.31098   3.69512   6.76758   1.17292   0.00000   2.000E-03   0.000E+00   9.980E-01
 200  6.88465333   0.770  -0.31149   3.69528   6.76859   1.17689   0.00000   2.000E-03   0.000E+00   9.980E-01
 201  6.88702871   0.770  -0.31200   3.69544   6.76960   1.18085   0.00000   2.000E-03   0.000E+00   9.980E-01
 202  6.88939118   0.770  -0.31246   3.69560   6.77060   1.18478   0.00000   2.040E-03   0.000E+00   9.980E-01
 203  6.89174086   0.770  -0.31283   3.69578   6.77158   1.18863   0.00000   2.166E-03   0.000E+00   9.978E-01
 204  6.89407790   0.770  -0.31320   3.69595   6.77257   1.19247   0.00000   2.292E-03   0.000E+00   9.977E-01
 205  6.89640243   0.770  -0.31358   3.69612   6.77355   1.19631   0.00000   2.418E-03   0.000E+00   9.976E-01
 206  6.89871458   0.770  -0.31395   3.69629   6.77454   1.20016   0.00000   2.543E-03   0.000E+00   9.975E-01
 207  6.90101449   0.770  -0.31432   3.69646   6.77553   1.20400   0.00000   2.669E-03   0.000E+00   9.973E-01
 208  6.90330228   0.770  -0.31469   3.69663   6.77651   1.20785   0.00000   2.795E-03   0.000E+00   9.972E-01
 209  6.90557809   0.770  -0.31507   3.69680   6.77750   1.21169   0.00000   2.921E-03   0.000E+00   9.971E-01
 210  6.90784203   0.770  -0.31539   3.69698   6.77848   1.21549   0.00000   3.000E-03   0.000E+00   9.970E-01
 211  6.91009423   0.770  -0.31562   3.69716   6.77945   1.21922   0.00000   3.000E-03   0.000E+00   9.970E-01
 212  6.91233481   0.770  -0.31586   3.69735   6.78042   1.22295   0.00000   3.000E-03   0.000E+00   9.970E-01
 213  6.91456389   0.770  -0.31609   3.69753   6.78139   1.22668   0.00000   3.000E-03   0.000E+00   9.970E-01
 214  6.91678159   0.770  -0.31633   3.69771   6.78236   1.23041   0.00000   3.000E-03   0.000E+00   9.970E-01
 215  6.91898802   0.770  -0.31656   3.69790   6.78332   1.23414   0.00000   3.000E-03   0.000E+00   9.970E-01
 216  6.92118330   0.770  -0.31680   3.69808   6.78429   1.23787   0.00000   3.000E-03   0.000E+00   9.970E-01
 217  6.92336754   0.770  -0.31703   3.69826   6.78526   1.24159   0.00000   3.000E-03   0.000E+00   9.970E-01
 218  6.92554084   0.770  -0.31722   3.69845   6.78623   1.24529   0.00000   3.046E-03   0.000E+00   9.970E-01
 219  6.92770333   0.770  -0.31732   3.69865   6.78718   1.24892   0.00000   3.170E-03   0.000E+00   9.968E-01
 220  6.92985510   0.770  -0.31743   3.69885   6.78813   1.25255   0.00000   3.294E-03   0.000E+00   9.967E-01
 221  6.93199626   0.770  -0.31754   3.69905   6.78908   1.25618   0.00000   3.418E-03   0.000E+00   9.966E-01
 222  6.93412692   0.770  -0.31764   3.69924   6.79004   1.25981   0.00000   3.542E-03   0.000E+00   9.965E-01
 223  6.93624718   0.770  -0.31775   3.69944   6.79099   1.26344   0.00000   3.666E-03   0.000E+00   9.963E-01
 224  6.93835713   0.770  -0.31785   3.69964   6.79194   1.26707   0.00000   3.791E-03   0.000E+00   9.962E-01
 225  6.94045688   0.770  -0.31796   3.69983   6.79289   1.27070   0.00000   3.915E-03   0.000E+00   9.961E-01
 226  6.94254653   0.770  -0.31802   3.70004   6.79384   1.27430   0.00000   4.000E-03   0.000E+00   9.960E-01
 227  6.94462618   0.770  -0.31799   3.70025   6.79478   1.27784   0.00000   4.000E-03   0.000E+00   9.960E-01
 228  6.94669591   0.770  -0.31796   3.70046   6.79572   1.28137   0.00000   4.000E-03   0.000E+00   9.960E-01
 229  6.94875583   0.770  -0.31794   3.70068   6.79667   1.28491   0.00000   4.000E-03   0.000E+00   9.960E-01
 230  6.95080602   0.770  -0.31791   3.70089   6.79761   1.28845   0.00000   4.000E-03   0.000E+00   9.960E-01
 231  6.95284658   0.770  -0.31788   3.70110   6.79855   1.29198   0.00000   4.000E-03   0.000E+00   9.960E-01
 232  6.95487759   0.770  -0.31785   3.70131   6.79949   1.29552   0.00000   4.000E-03   0.000E+00   9.960E-01
 233  6.95689915   0.770  -0.31782   3.70153   6.80043   1.29906   0.00000   4.000E-03   0.000E+00   9.960E-01
 234  6.95891135   0.770  -0.31777   3.70174   6.80137   1.30258   0.00000   4.029E-03   0.000E+00   9.960E-01
 235  6.96091426   0.770  -0.31762   3.70197   6.80230   1.30603   0.00000   4.153E-03   0.000E+00   9.958E-01
 236  6.96290798   0.770  -0.31747   3.70220   6.80323   1.30948   0.00000   4.278E-03   0.000E+00   9.957E-01
 237  6.96489259   0.770  -0.31733   3.70242   6.80416   1.31293   0.00000   4.402E-03   0.000E+00   9.956E-01
 238  6.96686817   0.770  -0.31718   3.70265   6.80508   1.31638   0.00000   4.527E-03   0.000E+00   9.955E-01
 239  6.96883481   0.770  -0.31703   3.70288   6.80601   1.31983   0.00000   4.651E-03   0.000E+00   9.953E-01
 240  6.97079258   0.770  -0.31688   3.70310   6.80694   1.32328   0.00000   4.776E-03   0.000E+00   9.952E-01
 241  6.97274156   0.770  -0.31674   3.70333   6.80787   1.32674   0.00000   4.900E-03   0.000E+00   9.951E-01
 242  6.97468184   0.770  -0.31657   3.70356   6.80880   1.33017   0.00000   5.024E-03   0.000E+00   9.950E-01
 243  6.97661349   0.770  -0.31633   3.70380   6.80972   1.33355   0.00000   5.149E-03   0.000E+00   9.949E-01
 244  6.97853658   0.770  -0.31608   3.70403   6.81064   1.33692   0.00000   5.273E-03   0.000E+00   9.947E-01
 245  6.98045119   0.770  -0.31584   3.70427   6.81156   1.34030   0.00000   5.398E-03   0.000E+00   9.946E-01
 246  6.98235740   0.770  -0.31559   3.70451   6.81248   1.34367   0.00000   5.522E-03   0.000E+00   9.945E-01
 247  6.98425529   0.770  -0.31535   3.70475   6.81340   1.34705   0.00000   5.647E-03   0.000E+00   9.944E-01
 248  6.98614491   0.770  -0.31510   3.70499   6.81432   1.35042   0.00000   5.771E-03   0.000E+00   9.942E-01
 249  6.98802635   0.770  -0.31486   3.70523   6.81524   1.35380   0.00000   5.896E-03   0.000E+00   9.941E-01
 250  6.98989967   0.770  -0.31460   3.70547   6.81616   1.35716   0.00000   6.020E-03   0.000E+00   9.940E-01
 251  6.99176494   0.770  -0.31426   3.70572   6.81707   1.36047   0.00000   6.144E-03   0.000E+00   9.939E-01
 252  6.99362224   0.770  -0.31393   3.70596   6.81798   1.36378   0.00000   6.269E-03   0.000E+00   9.937E-01
 253  6.99547163   0.770  -0.31360   3.70621   6.81890   1.36709   0.00000   6.393E-03   0.000E+00   9.936E-01
 254  6.99731318   0.770  -0.31326   3.70645   6.81981   1.37039   0.00000   6.517E-03   0.000E+00   9.935E-01
 255  6.99914695   0.770  -0.31293   3.70670   6.82072   1.37370   0.00000   6.642E-03   0.000E+00   9.934E-01
 256  7.00097301   0.770  -0.31260   3.70695   6.82163   1.37701   0.00000   6.766E-03   0.000E+00   9.932E-01
 257  7.00279143   0.770  -0.31226   3.70719   6.82255   1.38032   0.00000   6.890E-03   0.000E+00   9.931E-01
 258  7.00460226   0.770  -0.31192   3.70744   6.82346   1.38362   0.00000   7.015E-03   0.000E+00   9.930E-01
 259  7.00640558   0.770  -0.31153   3.70769   6.82436   1.38685   0.00000   7.140E-03   0.000E+00   9.929E-01
 260  7.00820143   0.770  -0.31113   3.70794   6.82527   1.39009   0.00000   7.266E-03   0.000E+00   9.927E-01
 261  7.00998990   0.770  -0.31073   3.70819   6.82617   1.39333   0.00000   7.392E-03   0.000E+00   9.926E-01
 262  7.01177102   0.770  -0.31034   3.70844   6.82707   1.39657   0.00000   7.517E-03   0.000E+00   9.925E-01
 263  7.01354488   0.770  -0.30994   3.70870   6.82798   1.39981   0.00000   7.643E-03   0.000E+00   9.924E-01
 264  7.01531151   0.770  -0.30954   3.70895   6.82888   1.40305   0.00000   7.768E-03   0.000E+00   9.922E-01
 265  7.01707099   0.770  -0.30915   3.70920   6.82978   1.40629   0.00000   7.894E-03   0.000E+00   9.921E-01
 266  7.01882337   0.770  -0.30874   3.70945   6.83069   1.40952   0.00000   8.019E-03   0.000E+00   9.920E-01
 267  7.02056871   0.770  -0.30828   3.70971   6.83159   1.41270   0.00000   8.146E-03   0.000E+00   9.919E-01
 268  7.02230706   0.770  -0.30782   3.70996   6.83248   1.41588   0.00000   8.272E-03   0.000E+00   9.917E-01
 269  7.02403848   0.770  -0.30735   3.71022   6.83338   1.41905   0.00000   8.399E-03   0.000E+00   9.916E-01
 270  7.02576303   0.770  -0.30689   3.71048   6.83428   1.42223   0.00000   8.526E-03   0.000E+00   9.915E-01
 271  7.02748075   0.770  -0.30643   3.71073   6.83518   1.42541   0.00000   8.652E-03   0.000E+00   9.913E-01
 272  7.02919171   0.770  -0.30597   3.71099   6.83608   1.42859   0.00000   8.779E-03   0.000E+00   9.912E-01
 273  7.03089595   0.770  -0.30551   3.71125   6.83698   1.43177   0.00000   8.905E-03   0.000E+00   9.911E-01
 274  7.03259353   0.770  -0.30503   3.71151   6.83787   1.43493   0.00000   9.064E-03   0.000E+00   9.909E-01
 275  7.03428450   0.770  -0.30451   3.71177   6.83877   1.43806   0.00000   9.319E-03   0.000E+00   9.907E-01
 276  7.03596892   0.770  -0.30398   3.71203   6.83966   1.44118   0.00000   9.575E-03   0.000E+00   9.904E-01
 277  7.03764682   0.770  -0.30346   3.71229   6.84055   1.44430   0.00000   9.830E-03   0.000E+00   9.902E-01
 278  7.03931827   0.770  -0.30294   3.71255   6.84145   1.44743   0.00000   1.009E-02   0.000E+00   9.899E-01
 279  7.04098331   0.770  -0.30242   3.71281   6.84234   1.45055   0.00000   1.034E-02   0.000E+00   9.897E-01
 280  7.04264199   0.770  -0.30190   3.71308   6.84324   1.45368   0.00000   1.060E-02   0.000E+00   9.894E-01
 281  7.04429436   0.770  -0.30137   3.71334   6.84413   1.45680   0.00000   1.085E-02   0.000E+00   9.891E-01
 282  7.04594047   0.770  -0.30083   3.71360   6.84502   1.45990   0.00000   1.105E-02   0.000E+00   9.889E-01
 283  7.04758036   0.770  -0.30025   3.71387   6.84591   1.46296   0.00000   1.118E-02   0.000E+00   9.888E-01
 284  7.04921408   0.770  -0.29968   3.71413   6.84680   1.46602   0.00000   1.131E-02   0.000E+00   9.887E-01
 285  7.05084168   0.770  -0.29910   3.71440   6.84769   1.46908   0.00000   1.144E-02   0.000E+00   9.886E-01
 286  7.05246320   0.770  -0.29853   3.71466   6.84858   1.47214   0.00000   1.157E-02   0.000E+00   9.884E-01
 287  7.05407870   0.770  -0.29795   3.71493   6.84947   1.47520   0.00000   1.170E-02   0.000E+00   9.883E-01
 288  7.05568820   0.770  -0.29737   3.71519   6.85036   1.47827   0.00000   1.183E-02   0.000E+00   9.882E-01
 289  7.05729176   0.770  -0.29680   3.71546   6.85124   1.48133   0.00000   1.196E-02   0.000E+00   9.880E-01
 290  7.05888942   0.770  -0.29619   3.71573   6.85213   1.48436   0.00000   1.217E-02   0.000E+00   9.878E-01
 291  7.06048123   0.770  -0.29556   3.71600   6.85301   1.48737   0.00000   1.243E-02   0.000E+00   9.876E-01
 292  7.06206722   0.770  -0.29494   3.71627   6.85390   1.49038   0.00000   1.269E-02   0.000E+00   9.873E-01
 293  7.06364744   0.770  -0.29431   3.71654   6.85478   1.49339   0.00000   1.295E-02   0.000E+00   9.870E-01
 294  7.06522194   0.770  -0.29369   3.71681   6.85566   1.49640   0.00000   1.321E-02   0.000E+00   9.868E-01
 295  7.06679074   0.770  -0.29306   3.71709   6.85655   1.49942   0.00000   1.347E-02   0.000E+00   9.865E-01
 296  7.06835390   0.770  -0.29244   3.71736   6.85743   1.50243   0.00000   1.373E-02   0.000E+00   9.863E-01
 297  7.06991145   0.770  -0.29181   3.71763   6.85831   1.50544   0.00000   1.399E-02   0.000E+00   9.860E-01
 298  7.07146344   0.770  -0.29114   3.71790   6.85920   1.50841   0.00000   1.413E-02   0.000E+00   9.859E-01
 299  7.07300990   0.770  -0.29047   3.71818   6.86008   1.51137   0.00000   1.426E-02   0.000E+00   9.857E-01
 300  7.07455087   0.770  -0.28979   3.71846   6.86096   1.51434   0.00000   1.439E-02   0.000E+00   9.856E-01
 301  7.07608640   0.770  -0.28912   3.71873   6.86184   1.51730   0.00000   1.452E-02   0.000E+00   9.855E-01
 302  7.07761651   0.770  -0.28844   3.71901   6.86272   1.52027   0.00000   1.465E-02   0.000E+00   9.854E-01
 303  7.07914126   0.770  -0.28777   3.71928   6.86360   1.52323   0.00000   1.478E-02   0.000E+00   9.852E-01
 304  7.08066066   0.770  -0.28709   3.71956   6.86448   1.52620   0.00000   1.491E-02   0.000E+00   9.851E-01
 305  7.08217478   0.770  -0.28641   3.71983   6.86536   1.52915   0.00000   1.508E-02   0.000E+00   9.849E-01
 306  7.08368363   0.770  -0.28571   3.72011   6.86623   1.53206   0.00000   1.535E-02   0.000E+00   9.847E-01
 307  7.08518725   0.770  -0.28501   3.72039   6.86711   1.53498   0.00000   1.561E-02   0.000E+00   9.844E-01
 308  7.08668569   0.770  -0.28431   3.72067   6.86798   1.53790   0.00000   1.588E-02   0.000E+00   9.841E-01
 309  7.08817898   0.770  -0.28361   3.72094   6.86886   1.54082   0.00000   1.615E-02   0.000E+00   9.839E-01
 310  7.08966715   0.770  -0.28291   3.72122   6.86973   1.54373   0.00000   1.641E-02   0.000E+00   9.836E-01
 311  7.09115024   0.770  -0.28221   3.72150   6.87061   1.54665   0.00000   1.668E-02   0.000E+00   9.833E-01
 312  7.09262828   0.770  -0.28151   3.72177   6.87148   1.54957   0.00000   1.695E-02   0.000E+00   9.831E-01
 313  7.09410130   0.770  -0.28078   3.72206   6.87236   1.55245   0.00000   1.721E-02   0.000E+00   9.828E-01
 314  7.09556935   0.770  -0.28003   3.72234   6.87323   1.55533   0.00000   1.748E-02   0.000E+00   9.825E-01
 315  7.09703245   0.770  -0.27929   3.72262   6.87410   1.55820   0.00000   1.775E-02   0.000E+00   9.823E-01
 316  7.09849064   0.770  -0.27855   3.72290   6.87498   1.56108   0.00000   1.801E-02   0.000E+00   9.820E-01
 317  7.09994395   0.770  -0.27781   3.72318   6.87585   1.56395   0.00000   1.828E-02   0.000E+00   9.817E-01
 318  7.10139241   0.770  -0.27706   3.72346   6.87672   1.56683   0.00000   1.855E-02   0.000E+00   9.815E-01
 319  7.10283606   0.770  -0.27632   3.72375   6.87760   1.56970   0.00000   1.882E-02   0.000E+00   9.812E-01
 320  7.10427493   0.770  -0.27558   3.72403   6.87847   1.57257   0.00000   1.913E-02   0.000E+00   9.809E-01
 321  7.10570904   0.770  -0.27483   3.72431   6.87934   1.57539   0.00000   1.953E-02   0.000E+00   9.805E-01
 322  7.10713843   0.770  -0.27409   3.72459   6.88021   1.57822   0.00000   1.994E-02   0.000E+00   9.801E-01
 323  7.10856314   0.770  -0.27334   3.72487   6.88108   1.58105   0.00000   2.035E-02   0.000E+00   9.796E-01
 324  7.10998318   0.770  -0.27259   3.72515   6.88195   1.58388   0.00000   2.076E-02   0.000E+00   9.792E-01
 325  7.11139860   0.770  -0.27184   3.72543   6.88282   1.58671   0.00000   2.117E-02   0.000E+00   9.788E-01
 326  7.11280942   0.770  -0.27110   3.72571   6.88368   1.58953   0.00000   2.157E-02   0.000E+00   9.784E-01
 327  7.11421567   0.770  -0.27035   3.72599   6.88455   1.59236   0.00000   2.198E-02   0.000E+00   9.780E-01
 328  7.11561738   0.770  -0.26959   3.72627   6.88542   1.59515   0.00000   2.226E-02   0.000E+00   9.777E-01
 329  7.11701459   0.770  -0.26883   3.72655   6.88629   1.59794   0.00000   2.254E-02   0.000E+00   9.775E-01
 330  7.11840731   0.770  -0.26807   3.72683   6.88715   1.60074   0.00000   2.281E-02   0.000E+00   9.772E-01
 331  7.11979558   0.770  -0.26731   3.72712   6.88802   1.60353   0.00000   2.309E-02   0.000E+00   9.769E-01
 332  7.12117943   0.770  -0.26654   3.72740   6.88888   1.60632   0.00000   2.336E-02   0.000E+00   9.766E-01
 333  7.12255888   0.770  -0.26578   3.72768   6.88975   1.60911   0.00000   2.364E-02   0.000E+00   9.764E-01
 334  7.12393396   0.770  -0.26502   3.72796   6.89062   1.61190   0.00000   2.391E-02   0.000E+00   9.761E-01
 335  7.12530471   0.770  -0.26425   3.72824   6.89148   1.61466   0.00000   2.429E-02   0.000E+00   9.757E-01
 336  7.12667114   0.770  -0.26348   3.72853   6.89234   1.61741   0.00000   2.470E-02   0.000E+00   9.753E-01
 337  7.12803328   0.770  -0.26270   3.72881   6.89321   1.62015   0.00000   2.512E-02   0.000E+00   9.749E-01
 338  7.12939117   0.770  -0.26193   3.72909   6.89407   1.62290   0.00000   2.554E-02   0.000E+00   9.745E-01
 339  7.13074482   0.770  -0.26115   3.72937   6.89493   1.62565   0.00000   2.595E-02   0.000E+00   9.740E-01
 340  7.13209427   0.770  -0.26038   3.72965   6.89580   1.62840   0.00000   2.637E-02   0.000E+00   9.736E-01
 341  7.13343954   0.770  -0.25961   3.72994   6.89666   1.63114   0.00000   2.679E-02   0.000E+00   9.732E-01
 342  7.13478065   0.770  -0.25882   3.73022   6.89752   1.63387   0.00000   2.721E-02   0.000E+00   9.728E-01
 343  7.13611763   0.770  -0.25801   3.73051   6.89838   1.63658   0.00000   2.763E-02   0.000E+00   9.724E-01
 344  7.13745051   0.770  -0.25721   3.73080   6.89924   1.63929   0.00000   2.806E-02   0.000E+00   9.719E-01
 345  7.13877932   0.770  -0.25641   3.73108   6.90010   1.64200   0.00000   2.848E-02   0.000E+00   9.715E-01
 346  7.14010407   0.770  -0.25560   3.73137   6.90096   1.64471   0.00000   2.891E-02   0.000E+00   9.711E-01
 347  7.14142479   0.770  -0.25480   3.73166   6.90182   1.64742   0.00000   2.933E-02   0.000E+00   9.707E-01
 348  7.14274151   0.770  -0.25400   3.73195   6.90268   1.65013   0.00000   2.976E-02   0.000E+00   9.702E-01
 349  7.14405424   0.770  -0.25318   3.73223   6.90353   1.65278   0.00000   3.017E-02   0.000E+00   9.698E-01
 350  7.14536302   0.770  -0.25235   3.73251   6.90435   1.65536   0.00000   3.058E-02   0.000E+00   9.694E-01
 351  7.14666787   0.770  -0.25153   3.73278   6.90517   1.65793   0.00000   3.098E-02   0.000E+00   9.690E-01
 352  7.14796881   0.770  -0.25068   3.73307   6.90600   1.66050   0.00000   3.139E-02   0.000E+00   9.686E-01
 353  7.14926587   0.770  -0.24984   3.73335   6.90682   1.66306   0.00000   3.180E-02   0.000E+00   9.682E-01
 354  7.15055906   0.770  -0.24901   3.73364   6.90764   1.66562   0.00000   3.222E-02   0.000E+00   9.678E-01
 355  7.15184841   0.770  -0.24818   3.73392   6.90847   1.66817   0.00000   3.264E-02   0.000E+00   9.674E-01
 356  7.15313395   0.770  -0.24736   3.73419   6.90929   1.67073   0.00000   3.307E-02   0.000E+00   9.669E-01
 357  7.15441569   0.770  -0.24656   3.73447   6.91011   1.67327   0.00000   3.348E-02   0.000E+00   9.665E-01
 358  7.15569366   0.770  -0.24576   3.73475   6.91094   1.67582   0.00000   3.389E-02   0.000E+00   9.661E-01
 359  7.15696788   0.770  -0.24495   3.73503   6.91176   1.67835   0.00000   3.459E-02   0.000E+00   9.654E-01
 360  7.15823837   0.770  -0.24415   3.73532   6.91258   1.68089   0.00000   3.539E-02   0.000E+00   9.646E-01
 361  7.15950516   0.770  -0.24336   3.73560   6.91340   1.68342   0.00000   3.610E-02   0.000E+00   9.639E-01
 362  7.16076826   0.770  -0.24259   3.73587   6.91422   1.68593   0.00000   3.650E-02   0.000E+00   9.635E-01
 363  7.16202770   0.770  -0.24183   3.73614   6.91504   1.68844   0.00000   3.690E-02   0.000E+00   9.631E-01
 364  7.16328350   0.770  -0.24104   3.73642   6.91586   1.69095   0.00000   3.729E-02   0.000E+00   9.627E-01
 365  7.16453568   0.770  -0.24026   3.73670   6.91668   1.69346   0.00000   3.767E-02   0.000E+00   9.623E-01
 366  7.16578426   0.770  -0.23947   3.73698   6.91751   1.69596   0.00000   3.805E-02   0.000E+00   9.619E-01
 367  7.16702926   0.770  -0.23873   3.73725   6.91833   1.69845   0.00000   3.845E-02   0.000E+00   9.616E-01
 368  7.16827070   0.770  -0.23799   3.73752   6.91915   1.70095   0.00000   3.884E-02   0.000E+00   9.612E-01
 369  7.16950860   0.770  -0.23724   3.73779   6.91997   1.70343   0.00000   3.944E-02   0.000E+00   9.606E-01
 370  7.17074298   0.770  -0.23648   3.73807   6.92079   1.70591   0.00000   4.018E-02   0.000E+00   9.598E-01
 371  7.17197386   0.770  -0.23572   3.73834   6.92161   1.70839   0.00000   4.092E-02   0.000E+00   9.591E-01
 372  7.17320127   0.770  -0.23499   3.73862   6.92243   1.71086   0.00000   4.134E-02   0.000E+00   9.587E-01
 373  7.17442522   0.770  -0.23427   3.73889   6.92325   1.71333   0.00000   4.172E-02   0.000E+00   9.583E-01
 374  7.17564572   0.770  -0.23355   3.73916   6.92406   1.71580   0.00000   4.219E-02   0.000E+00   9.578E-01
 375  7.17686281   0.770  -0.23282   3.73943   6.92488   1.71825   0.00000   4.291E-02   0.000E+00   9.571E-01
 376  7.17807649   0.770  -0.23210   3.73970   6.92570   1.72071   0.00000   4.363E-02   0.000E+00   9.564E-01
 377  7.17928680   0.770  -0.23139   3.73997   6.92651   1.72316   0.00000   4.436E-02   0.000E+00   9.556E-01
 378  7.18049373   0.770  -0.23069   3.74024   6.92733   1.72560   0.00000   4.508E-02   0.000E+00   9.549E-01
 379  7.18169733   0.770  -0.22998   3.74051   6.92814   1.72804   0.00000   4.581E-02   0.000E+00   9.542E-01
 380  7.18289760   0.770  -0.22929   3.74078   6.92896   1.73046   0.00000   4.626E-02   0.000E+00   9.535E-01
 381  7.18409456   0.770  -0.22860   3.74104   6.92978   1.73289   0.00000   4.661E-02   0.000E+00   9.528E-01
 382  7.18528823   0.770  -0.22790   3.74131   6.93059   1.73531   0.00000   4.696E-02   0.000E+00   9.521E-01
 383  7.18647862   0.770  -0.22723   3.74157   6.93141   1.73772   0.00000   4.761E-02   0.000E+00   9.517E-01
 384  7.18766577   0.770  -0.22656   3.74184   6.93222   1.74013   0.00000   4.830E-02   0.000E+00   9.513E-01
 385  7.18884967   0.770  -0.22589   3.74211   6.93304   1.74254   0.00000   4.899E-02   0.000E+00   9.510E-01
 386  7.19003036   0.770  -0.22522   3.74237   6.93385   1.74493   0.00000   4.967E-02   0.000E+00   9.503E-01
 387  7.19120785   0.770  -0.22456   3.74263   6.93467   1.74733   0.00000   5.034E-02   0.000E+00   9.497E-01
 388  7.19238216   0.770  -0.22390   3.74290   6.93548   1.74972   0.00000   5.102E-02   0.000E+00   9.490E-01
 389  7.19355329   0.770  -0.22325   3.74316   6.93629   1.75211   0.00000   5.202E-02   0.000E+00   9.480E-01
 390  7.19472128   0.770  -0.22261   3.74342   6.93711   1.75449   0.00000   5.301E-02   0.000E+00   9.470E-01
 391  7.19588614   0.770  -0.22196   3.74368   6.93792   1.75687   0.00000   5.400E-02   0.000E+00   9.460E-01
 392  7.20292404   0.770  -0.21817   3.74526   6.94285   1.77122   0.00000   5.790E-02   0.000E+00   9.421E-01
 393  7.20984971   0.770  -0.21459   3.74681   6.94778   1.78535   0.00000   6.261E-02   0.000E+00   9.366E-01
 394  7.21666667   0.770  -0.21113   3.74834   6.95268   1.79929   0.00000   6.865E-02   0.000E+00   9.313E-01
 395  7.22337827   0.770  -0.20793   3.74983   6.95756   1.81296   0.00000   7.393E-02   0.000E+00   9.261E-01
 396  7.22998773   0.770  -0.20491   3.75130   6.96241   1.82638   0.00000   8.018E-02   0.000E+00   9.198E-01
 397  7.23649811   0.770  -0.20209   3.75275   6.96724   1.83954   0.00000   8.635E-02   0.000E+00   9.137E-01
 398  7.24291233   0.770  -0.19944   3.75418   6.97205   1.85245   0.00000   9.330E-02   0.000E+00   9.067E-01
 399  7.24923320   0.770  -0.19693   3.75561   6.97681   1.86512   0.00000   1.008E-01   0.000E+00   8.992E-01
 400  7.25546339   0.770  -0.19460   3.75704   6.98155   1.87746   0.00000   1.094E-01   0.000E+00   8.906E-01
 401  7.26160546   0.770  -0.19255   3.75845   6.98626   1.88952   0.00000   1.177E-01   0.000E+00   8.823E-01
 402  7.26766188   0.770  -0.19078   3.75982   6.99095   1.90131   0.00000   1.266E-01   0.000E+00   8.734E-01
 403  7.27363500   0.770  -0.18923   3.76117   6.99562   1.91279   0.00000   1.363E-01   0.000E+00   8.637E-01
 404  7.27952709   0.770  -0.18792   3.76249   7.00026   1.92391   0.00000   1.470E-01   0.000E+00   8.530E-01
 405  7.28534030   0.770  -0.18685   3.76376   7.00487   1.93462   0.00000   1.584E-01   0.000E+00   8.416E-01
 406  7.29107673   0.770  -0.18606   3.76497   7.00945   1.94483   0.00000   1.704E-01   0.000E+00   8.296E-01
 407  7.29673837   0.770  -0.18550   3.76614   7.01401   1.95456   0.00000   1.839E-01   0.000E+00   8.161E-01
 408  7.30232716   0.770  -0.18520   3.76727   7.01858   1.96381   0.00000   1.979E-01   0.000E+00   8.021E-01
 409  7.30784493   0.770  -0.18512   3.76835   7.02317   1.97252   0.00000   2.128E-01   0.000E+00   7.872E-01
 410  7.31329349   0.770  -0.18527   3.76940   7.02780   1.98064   0.00000   2.291E-01   0.000E+00   7.709E-01
 411  7.31867453   0.770  -0.18569   3.77040   7.03249   1.98814   0.00000   2.474E-01   0.000E+00   7.526E-01
 412  7.32398971   0.770  -0.18647   3.77133   7.03731   1.99469   0.00000   2.673E-01   0.000E+00   7.327E-01
 413  7.32924063   0.770  -0.18755   3.77222   7.04221   2.00044   0.00104   2.892E-01   0.000E+00   7.108E-01
 414  7.33442882   0.770  -0.18891   3.77306   7.04704   2.00554   0.00381   3.131E-01   0.000E+00   6.869E-01
 415  7.33955576   0.770  -0.19060   3.77383   7.05169   2.01003   0.00904   3.394E-01   0.000E+00   6.606E-01
 416  7.34462288   0.770  -0.19264   3.77453   7.05594   2.01384   0.01396   3.685E-01   0.000E+00   6.315E-01
 417  7.34963157   0.770  -0.19500   3.77517   7.05996   2.01677   0.02289   4.051E-01   0.000E+00   5.941E-01
 418  7.35458314   0.770  -0.19780   3.77571   7.06383   2.01902   0.03146   4.485E-01   0.000E+00   5.514E-01
 419  7.35947890   0.770  -0.20106   3.77617   7.06737   2.02071   0.04070   4.879E-01   0.000E+00   5.115E-01
 420  7.36432008   0.770  -0.20477   3.77654   7.07060   2.02193   0.04663   5.271E-01   0.000E+00   4.729E-01
 421  7.36910789   0.770  -0.20886   3.77683   7.07350   2.02284   0.05605   5.615E-01   0.000E+00   4.385E-01
 422  7.37384350   0.770  -0.21341   3.77703   7.07610   2.02316   0.06296   6.035E-01   0.000E+00   3.965E-01
 423  7.37852802   0.770  -0.21837   3.77715   7.07840   2.02312   0.06860   6.410E-01   0.000E+00   3.590E-01
 424  7.38316255   0.770  -0.22372   3.77719   7.08050   2.02282   0.07498   6.745E-01   0.000E+00   3.253E-01
 425  7.38774815   0.770  -0.22940   3.77714   7.08237   2.02232   0.08136   7.061E-01   0.000E+00   2.939E-01
 426  7.39228583   0.770  -0.23541   3.77702   7.08402   2.02159   0.08455   7.386E-01   0.000E+00   2.614E-01
 427  7.39677659   0.770  -0.24171   3.77684   7.08546   2.02067   0.09093   7.695E-01   0.000E+00   2.305E-01
 428  7.40122139   0.770  -0.24829   3.77658   7.08671   2.01957   0.09412   7.992E-01   0.000E+00   2.001E-01
 429  7.40562116   0.770  -0.25512   3.77625   7.08779   2.01834   0.09732   8.271E-01   0.000E+00   1.729E-01
 430  7.40997681   0.770  -0.26215   3.77586   7.08871   2.01699   0.10051   8.534E-01   0.000E+00   1.466E-01
 431  7.41428920   0.770  -0.26931   3.77542   7.08950   2.01553   0.10287   8.812E-01   0.000E+00   1.188E-01
 432  7.41855919   0.769  -0.27662   3.77492   7.09014   2.01401   0.10370   9.047E-01   0.000E+00   9.496E-02
 433  7.42278761   0.769  -0.28399   3.77438   7.09067   2.01242   0.10689   9.265E-01   0.000E+00   7.280E-02
 434  7.42697526   0.769  -0.29138   3.77379   7.09108   2.01081   0.10689   9.485E-01   0.000E+00   5.110E-02
 435  7.43112291   0.769  -0.29871   3.77318   7.09135   2.00912   0.10827   9.682E-01   0.000E+00   3.154E-02
 436  7.43523133   0.769  -0.30599   3.77254   7.09157   2.00750   0.11008   9.863E-01   0.000E+00   1.354E-02
 437  7.43930124   0.769  -0.31308   3.77188   7.09171   2.00590   0.11008   1.002E+00   0.000E+00  -2.364E-03
 438  7.44333337   0.769  -0.32005   3.77120   7.09177   2.00433   0.11008   1.017E+00   0.000E+00  -1.672E-02
 439  7.44732841   0.769  -0.32665   3.77054   7.09177   2.00283   0.10844   1.029E+00   0.000E+00  -2.905E-02
 440  7.45128703   0.769  -0.33304   3.76987   7.09174   2.00140   0.10689   1.039E+00   0.000E+00  -3.942E-02
 441  7.45520989   0.769  -0.33916   3.76920   7.09164   2.00006   0.10689   1.049E+00   0.000E+00  -4.848E-02
 442  7.45909764   0.769  -0.34478   3.76858   7.09151   1.99879   0.10689   1.055E+00   0.000E+00  -5.603E-02
 443  7.46295089   0.769  -0.35010   3.76796   7.09135   1.99760   0.10370   1.062E+00   0.000E+00  -6.251E-02
 444  7.46677026   0.769  -0.35507   3.76738   7.09117   1.99650   0.10370   1.067E+00   0.000E+00  -6.753E-02
 445  7.47055633   0.769  -0.35949   3.76683   7.09097   1.99549   0.10261   1.071E+00   0.000E+00  -7.131E-02
 446  7.47430968   0.769  -0.36357   3.76632   7.09074   1.99455   0.10051   1.073E+00   0.000E+00  -7.396E-02
 447  7.47803086   0.769  -0.36724   3.76584   7.09050   1.99371   0.10051   1.075E+00   0.000E+00  -7.582E-02
 448  7.48172044   0.769  -0.37048   3.76540   7.09027   1.99293   0.09732   1.077E+00   0.000E+00  -7.689E-02
 449  7.48537893   0.769  -0.37326   3.76503   7.09002   1.99224   0.09732   1.076E+00   0.000E+00  -7.660E-02
 450  7.48900686   0.769  -0.37571   3.76468   7.08978   1.99162   0.09727   1.076E+00   0.000E+00  -7.609E-02
 451  7.49260474   0.769  -0.37776   3.76437   7.08953   1.99107   0.09412   1.075E+00   0.000E+00  -7.506E-02
 452  7.49617305   0.769  -0.37946   3.76410   7.08930   1.99059   0.09412   1.073E+00   0.000E+00  -7.313E-02
 453  7.49971228   0.769  -0.38084   3.76387   7.08907   1.99015   0.09388   1.071E+00   0.000E+00  -7.106E-02
 454  7.50322291   0.769  -0.38185   3.76369   7.08884   1.98977   0.09161   1.069E+00   0.000E+00  -6.879E-02
 455  7.50670538   0.769  -0.38256   3.76354   7.08863   1.98946   0.09093   1.066E+00   0.000E+00  -6.591E-02
 456  7.51016015   0.769  -0.38314   3.76341   7.08843   1.98918   0.09093   1.063E+00   0.000E+00  -6.277E-02
 457  7.51358766   0.769  -0.38338   3.76332   7.08824   1.98895   0.09015   1.060E+00   0.000E+00  -5.990E-02
 458  7.51698833   0.769  -0.38349   3.76325   7.08806   1.98874   0.08907   1.057E+00   0.000E+00  -5.713E-02
 459  7.52036257   0.769  -0.38360   3.76318   7.08788   1.98853   0.08800   1.054E+00   0.000E+00  -5.436E-02
 460  7.52371080   0.769  -0.38342   3.76315   7.08774   1.98839   0.08719   1.051E+00   0.000E+00  -5.157E-02
 461  7.52703342   0.769  -0.38314   3.76314   7.08760   1.98827   0.08648   1.048E+00   0.000E+00  -4.878E-02
 462  7.53033080   0.769  -0.38287   3.76312   7.08746   1.98816   0.08576   1.046E+00   0.000E+00  -4.599E-02
 463  7.53360335   0.769  -0.38259   3.76311   7.08732   1.98804   0.08504   1.043E+00   0.000E+00  -4.320E-02
 464  7.53685141   0.769  -0.38226   3.76311   7.08720   1.98794   0.08440   1.040E+00   0.000E+00  -4.064E-02
 465  7.54007536   0.769  -0.38182   3.76313   7.08711   1.98789   0.08392   1.038E+00   0.000E+00  -3.859E-02
 466  7.54327556   0.769  -0.38138   3.76315   7.08701   1.98783   0.08344   1.036E+00   0.000E+00  -3.653E-02
 467  7.54645235   0.769  -0.38094   3.76316   7.08692   1.98778   0.08296   1.034E+00   0.000E+00  -3.448E-02
 468  7.54960607   0.769  -0.38050   3.76318   7.08683   1.98773   0.08248   1.032E+00   0.000E+00  -3.242E-02
 469  7.55273705   0.769  -0.38006   3.76320   7.08674   1.98767   0.08200   1.030E+00   0.000E+00  -3.036E-02
 470  7.55584562   0.769  -0.37962   3.76322   7.08664   1.98762   0.08152   1.028E+00   0.000E+00  -2.831E-02
 471  7.55893210   0.769  -0.37919   3.76325   7.08656   1.98757   0.08136   1.026E+00   0.000E+00  -2.666E-02
 472  7.56199680   0.769  -0.37875   3.76327   7.08649   1.98753   0.08136   1.025E+00   0.000E+00  -2.524E-02
 473  7.56504003   0.769  -0.37832   3.76330   7.08642   1.98749   0.08136   1.023E+00   0.000E+00  -2.381E-02
 474  7.56806207   0.769  -0.37789   3.76333   7.08635   1.98746   0.08136   1.022E+00   0.000E+00  -2.238E-02
 475  7.57106324   0.769  -0.37746   3.76335   7.08628   1.98741   0.08129   1.021E+00   0.000E+00  -2.104E-02
 476  7.57404380   0.769  -0.37711   3.76337   7.08623   1.98735   0.08059   1.020E+00   0.000E+00  -2.050E-02
 477  7.57700405   0.769  -0.37675   3.76340   7.08617   1.98729   0.07990   1.020E+00   0.000E+00  -1.996E-02
 478  7.57994426   0.769  -0.37639   3.76342   7.08611   1.98723   0.07921   1.019E+00   0.000E+00  -1.941E-02
 479  7.58286470   0.769  -0.37604   3.76344   7.08606   1.98717   0.07852   1.018E+00   0.000E+00  -1.887E-02
 480  7.58576563   0.769  -0.37573   3.76346   7.08601   1.98712   0.07789   1.018E+00   0.000E+00  -1.817E-02
 481  7.58864731   0.769  -0.37546   3.76348   7.08596   1.98709   0.07732   1.017E+00   0.000E+00  -1.732E-02
 482  7.59151000   0.769  -0.37519   3.76349   7.08591   1.98706   0.07675   1.016E+00   0.000E+00  -1.647E-02
 483  7.59435394   0.769  -0.37492   3.76351   7.08587   1.98702   0.07619   1.015E+00   0.000E+00  -1.561E-02
 484  7.59717937   0.769  -0.37465   3.76353   7.08582   1.98699   0.07562   1.014E+00   0.000E+00  -1.476E-02
 485  7.59998655   0.769  -0.37438   3.76355   7.08578   1.98695   0.07505   1.013E+00   0.000E+00  -1.391E-02
 486  7.60277569   0.769  -0.37420   3.76356   7.08574   1.98693   0.07461   1.013E+00   0.000E+00  -1.341E-02
 487  7.60554704   0.769  -0.37402   3.76357   7.08570   1.98691   0.07418   1.012E+00   0.000E+00  -1.297E-02
 488  7.60830082   0.769  -0.37385   3.76358   7.08566   1.98689   0.07375   1.012E+00   0.000E+00  -1.253E-02
 489  7.61103724   0.769  -0.37367   3.76359   7.08562   1.98687   0.07333   1.011E+00   0.000E+00  -1.209E-02
 490  7.61375653   0.769  -0.37350   3.76360   7.08559   1.98685   0.07290   1.011E+00   0.000E+00  -1.165E-02
 491  7.61645890   0.769  -0.37332   3.76361   7.08555   1.98682   0.07247   1.011E+00   0.000E+00  -1.121E-02
 492  7.61914456   0.769  -0.37314   3.76361   7.08551   1.98680   0.07204   1.010E+00   0.000E+00  -1.076E-02
 493  7.62181371   0.769  -0.37301   3.76362   7.08547   1.98677   0.07167   1.010E+00   0.000E+00  -1.051E-02
 494  7.62446656   0.769  -0.37293   3.76362   7.08544   1.98673   0.07139   1.010E+00   0.000E+00  -1.053E-02
 495  7.62710330   0.769  -0.37284   3.76362   7.08540   1.98669   0.07111   1.010E+00   0.000E+00  -1.054E-02
 496  7.62972413   0.769  -0.37276   3.76362   7.08536   1.98665   0.07082   1.010E+00   0.000E+00  -1.056E-02
 497  7.63232924   0.769  -0.37268   3.76362   7.08532   1.98661   0.07054   1.010E+00   0.000E+00  -1.058E-02
 498  7.63491882   0.769  -0.37260   3.76362   7.08529   1.98656   0.07025   1.010E+00   0.000E+00  -1.060E-02
 499  7.63749304   0.769  -0.37252   3.76361   7.08525   1.98652   0.06997   1.010E+00   0.000E+00  -1.061E-02
 500  7.64005210   0.769  -0.37244   3.76361   7.08521   1.98648   0.06968   1.010E+00   0.000E+00  -1.063E-02
 501  7.64259616   0.769  -0.37236   3.76361   7.08517   1.98644   0.06940   1.010E+00   0.000E+00  -1.065E-02
 502  7.64512541   0.769  -0.37228   3.76361   7.08514   1.98640   0.06911   1.010E+00   0.000E+00  -1.067E-02
 503  7.64764002   0.769  -0.37219   3.76361   7.08510   1.98635   0.06883   1.010E+00   0.000E+00  -1.069E-02
 504  7.65014015   0.769  -0.37213   3.76361   7.08506   1.98631   0.06852   1.010E+00   0.000E+00  -1.072E-02
 505  7.65262597   0.769  -0.37210   3.76360   7.08502   1.98625   0.06814   1.010E+00   0.000E+00  -1.080E-02
 506  7.65509764   0.769  -0.37208   3.76359   7.08498   1.98619   0.06776   1.010E+00   0.000E+00  -1.088E-02
 507  7.65755532   0.769  -0.37205   3.76358   7.08494   1.98613   0.06739   1.010E+00   0.000E+00  -1.097E-02
 508  7.65999918   0.769  -0.37203   3.76358   7.08490   1.98607   0.06701   1.010E+00   0.000E+00  -1.105E-02
 509  7.66242936   0.769  -0.37200   3.76357   7.08486   1.98601   0.06663   1.011E+00   0.000E+00  -1.113E-02
 510  7.66484602   0.769  -0.37198   3.76356   7.08482   1.98595   0.06625   1.011E+00   0.000E+00  -1.122E-02
 511  7.66724930   0.769  -0.37195   3.76355   7.08478   1.98589   0.06587   1.011E+00   0.000E+00  -1.130E-02
 512  7.66963936   0.769  -0.37193   3.76354   7.08474   1.98583   0.06549   1.011E+00   0.000E+00  -1.138E-02
 513  7.67201633   0.769  -0.37191   3.76353   7.08470   1.98577   0.06511   1.011E+00   0.000E+00  -1.147E-02
 514  7.67438037   0.769  -0.37188   3.76353   7.08466   1.98571   0.06473   1.011E+00   0.000E+00  -1.155E-02
 515  7.67673161   0.769  -0.37186   3.76352   7.08462   1.98565   0.06435   1.011E+00   0.000E+00  -1.163E-02
 516  7.67907018   0.769  -0.37183   3.76351   7.08458   1.98559   0.06397   1.011E+00   0.000E+00  -1.172E-02
 517  7.68139624   0.769  -0.37181   3.76350   7.08454   1.98553   0.06359   1.012E+00   0.000E+00  -1.180E-02
 518  7.68370990   0.769  -0.37178   3.76349   7.08450   1.98547   0.06321   1.012E+00   0.000E+00  -1.188E-02
 519  7.68601130   0.769  -0.37176   3.76348   7.08446   1.98541   0.06283   1.012E+00   0.000E+00  -1.197E-02
 520  7.68830057   0.769  -0.37173   3.76348   7.08442   1.98535   0.06245   1.012E+00   0.000E+00  -1.205E-02
 521  7.69057783   0.769  -0.37171   3.76347   7.08438   1.98529   0.06212   1.012E+00   0.000E+00  -1.208E-02
 522  7.69284322   0.769  -0.37169   3.76346   7.08435   1.98525   0.06187   1.012E+00   0.000E+00  -1.203E-02
 523  7.69509685   0.769  -0.37166   3.76345   7.08431   1.98520   0.06161   1.012E+00   0.000E+00  -1.199E-02
 524  7.69733884   0.769  -0.37164   3.76344   7.08427   1.98515   0.06136   1.012E+00   0.000E+00  -1.194E-02
 525  7.69956932   0.769  -0.37162   3.76344   7.08423   1.98511   0.06111   1.012E+00   0.000E+00  -1.189E-02
 526  7.70178841   0.769  -0.37159   3.76343   7.08419   1.98506   0.06086   1.012E+00   0.000E+00  -1.184E-02
 527  7.70399621   0.769  -0.37157   3.76342   7.08415   1.98502   0.06060   1.012E+00   0.000E+00  -1.180E-02
 528  7.70619285   0.769  -0.37155   3.76341   7.08411   1.98497   0.06035   1.012E+00   0.000E+00  -1.175E-02
 529  7.70837843   0.769  -0.37152   3.76341   7.08407   1.98492   0.06010   1.012E+00   0.000E+00  -1.170E-02
 530  7.71055307   0.769  -0.37150   3.76340   7.08403   1.98488   0.05984   1.012E+00   0.000E+00  -1.165E-02
 531  7.71271687   0.769  -0.37148   3.76339   7.08400   1.98483   0.05959   1.012E+00   0.000E+00  -1.161E-02
 532  7.71486995   0.769  -0.37145   3.76338   7.08396   1.98479   0.05934   1.012E+00   0.000E+00  -1.156E-02
 533  7.71701240   0.768  -0.37143   3.76338   7.08392   1.98474   0.05908   1.012E+00   0.000E+00  -1.151E-02
 534  7.71914434   0.768  -0.37141   3.76337   7.08388   1.98469   0.05883   1.011E+00   0.000E+00  -1.146E-02
 535  7.72126586   0.768  -0.37138   3.76336   7.08384   1.98465   0.05858   1.011E+00   0.000E+00  -1.141E-02
 536  7.72337707   0.768  -0.37136   3.76335   7.08380   1.98460   0.05832   1.011E+00   0.000E+00  -1.137E-02
 537  7.72547806   0.768  -0.37134   3.76335   7.08376   1.98456   0.05807   1.011E+00   0.000E+00  -1.132E-02
 538  7.72756895   0.768  -0.37131   3.76334   7.08372   1.98451   0.05782   1.011E+00   0.000E+00  -1.127E-02
 539  7.72964981   0.768  -0.37129   3.76333   7.08368   1.98446   0.05756   1.011E+00   0.000E+00  -1.122E-02
 540  7.73172075   0.768  -0.37127   3.76332   7.08365   1.98442   0.05731   1.011E+00   0.000E+00  -1.118E-02
 541  7.73378186   0.768  -0.37124   3.76332   7.08361   1.98437   0.05706   1.011E+00   0.000E+00  -1.113E-02
 542  7.73583324   0.768  -0.37122   3.76331   7.08357   1.98433   0.05681   1.011E+00   0.000E+00  -1.108E-02
 543  7.73787497   0.768  -0.37120   3.76330   7.08353   1.98428   0.05655   1.011E+00   0.000E+00  -1.103E-02
 544  7.73990714   0.768  -0.37117   3.76329   7.08349   1.98423   0.05630   1.011E+00   0.000E+00  -1.099E-02
 545  7.74192986   0.768  -0.37115   3.76329   7.08345   1.98419   0.05605   1.011E+00   0.000E+00  -1.094E-02
 546  7.74394319   0.768  -0.37113   3.76328   7.08341   1.98414   0.05580   1.011E+00   0.000E+00  -1.089E-02
 547  7.74594724   0.768  -0.37110   3.76327   7.08338   1.98410   0.05557   1.011E+00   0.000E+00  -1.085E-02
 548  7.74794208   0.768  -0.37108   3.76327   7.08335   1.98407   0.05533   1.011E+00   0.000E+00  -1.080E-02
 549  7.74992780   0.768  -0.37105   3.76326   7.08332   1.98403   0.05510   1.011E+00   0.000E+00  -1.076E-02
 550  7.75190448   0.768  -0.37103   3.76325   7.08329   1.98399   0.05487   1.011E+00   0.000E+00  -1.071E-02
 551  7.75387221   0.768  -0.37100   3.76325   7.08325   1.98395   0.05464   1.011E+00   0.000E+00  -1.067E-02
 552  7.75583106   0.768  -0.37098   3.76324   7.08322   1.98391   0.05440   1.011E+00   0.000E+00  -1.062E-02
 553  7.75778111   0.768  -0.37095   3.76324   7.08319   1.98388   0.05417   1.011E+00   0.000E+00  -1.058E-02
 554  7.75972245   0.768  -0.37093   3.76323   7.08316   1.98384   0.05394   1.011E+00   0.000E+00  -1.053E-02
 555  7.76165515   0.768  -0.37090   3.76322   7.08313   1.98380   0.05371   1.011E+00   0.000E+00  -1.049E-02
 556  7.76357928   0.768  -0.37088   3.76322   7.08309   1.98376   0.05348   1.010E+00   0.000E+00  -1.044E-02
 557  7.76549493   0.768  -0.37085   3.76321   7.08306   1.98372   0.05324   1.010E+00   0.000E+00  -1.040E-02
 558  7.76740216   0.768  -0.37083   3.76321   7.08303   1.98369   0.05301   1.010E+00   0.000E+00  -1.036E-02
 559  7.76930106   0.768  -0.37081   3.76320   7.08300   1.98365   0.05278   1.010E+00   0.000E+00  -1.031E-02
 560  7.77119169   0.768  -0.37078   3.76319   7.08297   1.98361   0.05255   1.010E+00   0.000E+00  -1.027E-02
 561  7.77307412   0.768  -0.37076   3.76319   7.08293   1.98357   0.05231   1.010E+00   0.000E+00  -1.022E-02
 562  7.77494843   0.768  -0.37073   3.76318   7.08290   1.98353   0.05208   1.010E+00   0.000E+00  -1.018E-02
 563  7.77681469   0.768  -0.37071   3.76318   7.08287   1.98350   0.05185   1.010E+00   0.000E+00  -1.013E-02
 564  7.77867296   0.768  -0.37068   3.76317   7.08284   1.98346   0.05162   1.010E+00   0.000E+00  -1.009E-02
 565  7.78052332   0.768  -0.37066   3.76316   7.08281   1.98342   0.05139   1.010E+00   0.000E+00  -1.004E-02
 566  7.78236582   0.768  -0.37063   3.76316   7.08277   1.98338   0.05115   1.010E+00   0.000E+00  -9.998E-03
 567  7.78420054   0.768  -0.37061   3.76315   7.08274   1.98334   0.05092   1.010E+00   0.000E+00  -9.953E-03
 568  7.78602754   0.768  -0.37058   3.76315   7.08271   1.98331   0.05069   1.010E+00   0.000E+00  -9.909E-03
 569  7.78784689   0.768  -0.37056   3.76314   7.08268   1.98327   0.05046   1.010E+00   0.000E+00  -9.864E-03
 570  7.78965864   0.768  -0.37054   3.76313   7.08265   1.98323   0.05022   1.010E+00   0.000E+00  -9.819E-03
 571  7.79146288   0.768  -0.37051   3.76313   7.08261   1.98319   0.04999   1.010E+00   0.000E+00  -9.774E-03
 572  7.79325964   0.768  -0.37049   3.76312   7.08258   1.98315   0.04976   1.010E+00   0.000E+00  -9.730E-03
 573  7.79504900   0.768  -0.37046   3.76311   7.08255   1.98311   0.04953   1.010E+00   0.000E+00  -9.685E-03
 574  7.79683103   0.768  -0.37044   3.76311   7.08252   1.98308   0.04930   1.010E+00   0.000E+00  -9.640E-03
 575  7.79860577   0.768  -0.37041   3.76310   7.08249   1.98304   0.04906   1.009E+00   0.000E+00  -9.596E-03
 576  7.80037328   0.768  -0.37039   3.76310   7.08245   1.98300   0.04883   1.009E+00   0.000E+00  -9.551E-03
 577  7.80213363   0.768  -0.37036   3.76309   7.08242   1.98296   0.04860   1.009E+00   0.000E+00  -9.506E-03
 578  7.80388688   0.768  -0.37034   3.76308   7.08239   1.98292   0.04837   1.009E+00   0.000E+00  -9.462E-03
 579  7.80563307   0.768  -0.37031   3.76308   7.08236   1.98289   0.04814   1.009E+00   0.000E+00  -9.417E-03
 580  7.80737228   0.768  -0.37029   3.76307   7.08233   1.98285   0.04790   1.009E+00   0.000E+00  -9.372E-03
 581  7.80910454   0.768  -0.37026   3.76307   7.08229   1.98281   0.04767   1.009E+00   0.000E+00  -9.328E-03
 582  7.81082993   0.768  -0.37024   3.76306   7.08226   1.98277   0.04744   1.009E+00   0.000E+00  -9.283E-03
 583  7.81254848   0.768  -0.37022   3.76305   7.08223   1.98273   0.04721   1.009E+00   0.000E+00  -9.238E-03
 584  7.81426026   0.768  -0.37019   3.76305   7.08220   1.98271   0.04702   1.009E+00   0.000E+00  -9.182E-03
 585  7.81596533   0.768  -0.37016   3.76305   7.08218   1.98270   0.04690   1.009E+00   0.000E+00  -9.108E-03
 586  7.81766372   0.768  -0.37013   3.76305   7.08217   1.98269   0.04678   1.009E+00   0.000E+00  -9.033E-03
 587  7.81935550   0.768  -0.37010   3.76304   7.08215   1.98268   0.04666   1.009E+00   0.000E+00  -8.959E-03
 588  7.82104071   0.768  -0.37007   3.76304   7.08213   1.98267   0.04654   1.009E+00   0.000E+00  -8.884E-03
 589  7.82271941   0.768  -0.37004   3.76304   7.08211   1.98266   0.04642   1.009E+00   0.000E+00  -8.810E-03
 590  7.82439164   0.768  -0.37001   3.76304   7.08209   1.98265   0.04630   1.009E+00   0.000E+00  -8.735E-03
 591  7.82605746   0.768  -0.36998   3.76304   7.08207   1.98265   0.04618   1.008E+00   0.000E+00  -8.660E-03
 592  7.82771692   0.768  -0.36995   3.76304   7.08205   1.98264   0.04606   1.008E+00   0.000E+00  -8.586E-03
 593  7.82937006   0.768  -0.36992   3.76303   7.08203   1.98263   0.04594   1.008E+00   0.000E+00  -8.511E-03
 594  7.83101693   0.768  -0.36989   3.76303   7.08201   1.98262   0.04582   1.008E+00   0.000E+00  -8.437E-03
 595  7.83265758   0.768  -0.36986   3.76303   7.08200   1.98261   0.04570   1.008E+00   0.000E+00  -8.362E-03
 596  7.83429205   0.768  -0.36983   3.76303   7.08198   1.98260   0.04558   1.008E+00   0.000E+00  -8.288E-03
 597  7.83592040   0.768  -0.36980   3.76303   7.08196   1.98259   0.04546   1.008E+00   0.000E+00  -8.213E-03
 598  7.83754266   0.768  -0.36977   3.76302   7.08194   1.98259   0.04534   1.008E+00   0.000E+00  -8.138E-03
 599  7.83915889   0.768  -0.36974   3.76302   7.08192   1.98258   0.04522   1.008E+00   0.000E+00  -8.064E-03
 600  7.84076912   0.768  -0.36971   3.76302   7.08190   1.98257   0.04510   1.008E+00   0.000E+00  -7.989E-03
 601  7.84237341   0.768  -0.36968   3.76302   7.08188   1.98256   0.04498   1.008E+00   0.000E+00  -7.915E-03
 602  7.84397179   0.768  -0.36965   3.76302   7.08186   1.98255   0.04486   1.008E+00   0.000E+00  -7.840E-03
 603  7.84556431   0.768  -0.36962   3.76302   7.08184   1.98254   0.04474   1.008E+00   0.000E+00  -7.766E-03
 604  7.84715101   0.768  -0.36959   3.76301   7.08183   1.98253   0.04463   1.008E+00   0.000E+00  -7.691E-03
 605  7.84873194   0.768  -0.36956   3.76301   7.08181   1.98253   0.04451   1.007E+00   0.000E+00  -7.616E-03
 606  7.85030713   0.768  -0.36953   3.76301   7.08179   1.98252   0.04439   1.007E+00   0.000E+00  -7.542E-03
 607  7.85187663   0.768  -0.36950   3.76301   7.08177   1.98251   0.04427   1.007E+00   0.000E+00  -7.467E-03
 608  7.85344047   0.768  -0.36947   3.76301   7.08175   1.98250   0.04415   1.007E+00   0.000E+00  -7.393E-03
 609  7.85499871   0.768  -0.36944   3.76301   7.08173   1.98249   0.04403   1.007E+00   0.000E+00  -7.318E-03
 610  7.85655138   0.768  -0.36941   3.76300   7.08171   1.98248   0.04391   1.007E+00   0.000E+00  -7.243E-03
 611  7.85809851   0.768  -0.36937   3.76300   7.08169   1.98247   0.04379   1.007E+00   0.000E+00  -7.169E-03
 612  7.85964015   0.768  -0.36934   3.76300   7.08167   1.98246   0.04367   1.007E+00   0.000E+00  -7.094E-03
 613  7.86117634   0.768  -0.36931   3.76300   7.08166   1.98246   0.04355   1.007E+00   0.000E+00  -7.020E-03
 614  7.86270712   0.768  -0.36928   3.76300   7.08164   1.98245   0.04343   1.007E+00   0.000E+00  -6.945E-03
 615  7.86423251   0.768  -0.36925   3.76299   7.08162   1.98244   0.04331   1.007E+00   0.000E+00  -6.871E-03
 616  7.86575257   0.768  -0.36922   3.76299   7.08160   1.98243   0.04319   1.007E+00   0.000E+00  -6.796E-03
 617  7.86726733   0.768  -0.36919   3.76299   7.08158   1.98242   0.04307   1.007E+00   0.000E+00  -6.721E-03
 618  7.86877682   0.768  -0.36916   3.76299   7.08156   1.98241   0.04295   1.007E+00   0.000E+00  -6.647E-03
 619  7.87028109   0.768  -0.36913   3.76299   7.08154   1.98240   0.04283   1.007E+00   0.000E+00  -6.572E-03
 620  7.87178016   0.768  -0.36910   3.76299   7.08152   1.98240   0.04271   1.006E+00   0.000E+00  -6.498E-03
 621  7.87327407   0.768  -0.36907   3.76298   7.08151   1.98239   0.04259   1.006E+00   0.000E+00  -6.423E-03
 622  7.87476287   0.768  -0.36904   3.76298   7.08149   1.98238   0.04247   1.006E+00   0.000E+00  -6.349E-03
 623  7.87624657   0.768  -0.36901   3.76298   7.08147   1.98237   0.04235   1.006E+00   0.000E+00  -6.274E-03
 624  7.87772523   0.768  -0.36898   3.76298   7.08145   1.98236   0.04223   1.006E+00   0.000E+00  -6.199E-03
 625  7.87919887   0.768  -0.36895   3.76298   7.08143   1.98235   0.04212   1.006E+00   0.000E+00  -6.125E-03
 626  7.88066752   0.767  -0.36892   3.76298   7.08141   1.98234   0.04200   1.006E+00   0.000E+00  -6.050E-03
 627  7.88213123   0.767  -0.36889   3.76297   7.08139   1.98234   0.04188   1.006E+00   0.000E+00  -5.976E-03
 628  7.88359002   0.767  -0.36886   3.76297   7.08137   1.98233   0.04176   1.006E+00   0.000E+00  -5.901E-03
 629  7.88504392   0.767  -0.36883   3.76297   7.08135   1.98232   0.04164   1.006E+00   0.000E+00  -5.827E-03
 630  7.88649298   0.767  -0.36880   3.76297   7.08134   1.98231   0.04152   1.006E+00   0.000E+00  -5.752E-03
 631  7.88793721   0.767  -0.36877   3.76297   7.08132   1.98230   0.04140   1.006E+00   0.000E+00  -5.677E-03
 632  7.88937666   0.767  -0.36874   3.76296   7.08130   1.98229   0.04128   1.006E+00   0.000E+00  -5.603E-03
 633  7.89081135   0.767  -0.36871   3.76296   7.08128   1.98228   0.04116   1.006E+00   0.000E+00  -5.528E-03
 634  7.89224132   0.767  -0.36868   3.76296   7.08126   1.98227   0.04104   1.005E+00   0.000E+00  -5.454E-03
 635  7.89366660   0.767  -0.36865   3.76296   7.08124   1.98227   0.04092   1.005E+00   0.000E+00  -5.379E-03
 636  7.89508721   0.767  -0.36862   3.76296   7.08122   1.98226   0.04080   1.005E+00   0.000E+00  -5.305E-03
 637  7.89650319   0.767  -0.36859   3.76296   7.08120   1.98225   0.04068   1.005E+00   0.000E+00  -5.230E-03
 638  7.89791457   0.767  -0.36856   3.76295   7.08118   1.98224   0.04056   1.005E+00   0.000E+00  -5.155E-03
 639  7.89932138   0.767  -0.36853   3.76295   7.08117   1.98223   0.04044   1.005E+00   0.000E+00  -5.081E-03
 640  7.90072365   0.767  -0.36850   3.76295   7.08115   1.98222   0.04032   1.005E+00   0.000E+00  -5.006E-03
 641  7.90212140   0.767  -0.36848   3.76295   7.08113   1.98222   0.04022   1.005E+00   0.000E+00  -4.966E-03
 642  7.90351467   0.767  -0.36846   3.76295   7.08112   1.98221   0.04013   1.005E+00   0.000E+00  -4.945E-03
 643  7.90490348   0.767  -0.36844   3.76295   7.08111   1.98221   0.04004   1.005E+00   0.000E+00  -4.923E-03
 644  7.90628787   0.767  -0.36842   3.76295   7.08110   1.98220   0.03995   1.005E+00   0.000E+00  -4.902E-03
 645  7.90766786   0.767  -0.36840   3.76294   7.08108   1.98219   0.03986   1.005E+00   0.000E+00  -4.880E-03
 646  7.90904347   0.767  -0.36838   3.76294   7.08107   1.98219   0.03977   1.005E+00   0.000E+00  -4.859E-03
 647  7.91041475   0.767  -0.36836   3.76294   7.08106   1.98218   0.03968   1.005E+00   0.000E+00  -4.838E-03
 648  7.91178170   0.767  -0.36834   3.76294   7.08105   1.98218   0.03959   1.005E+00   0.000E+00  -4.816E-03
 649  7.91314437   0.767  -0.36832   3.76294   7.08104   1.98217   0.03950   1.005E+00   0.000E+00  -4.795E-03
 650  7.91450278   0.767  -0.36830   3.76294   7.08102   1.98217   0.03941   1.005E+00   0.000E+00  -4.773E-03
 651  7.91585695   0.767  -0.36828   3.76294   7.08101   1.98216   0.03932   1.005E+00   0.000E+00  -4.752E-03
 652  7.91720691   0.767  -0.36826   3.76293   7.08100   1.98216   0.03923   1.005E+00   0.000E+00  -4.730E-03
 653  7.91855268   0.767  -0.36824   3.76293   7.08099   1.98215   0.03914   1.005E+00   0.000E+00  -4.709E-03
 654  7.91989430   0.767  -0.36822   3.76293   7.08098   1.98215   0.03905   1.005E+00   0.000E+00  -4.688E-03
 655  7.92123179   0.767  -0.36820   3.76293   7.08096   1.98214   0.03896   1.005E+00   0.000E+00  -4.666E-03
 656  7.92256517   0.767  -0.36818   3.76293   7.08095   1.98214   0.03887   1.005E+00   0.000E+00  -4.645E-03
 657  7.92389447   0.767  -0.36816   3.76293   7.08094   1.98213   0.03878   1.004E+00   0.000E+00  -4.623E-03
 658  7.92521972   0.767  -0.36814   3.76293   7.08093   1.98212   0.03869   1.004E+00   0.000E+00  -4.602E-03
 659  7.92654093   0.767  -0.36812   3.76292   7.08091   1.98212   0.03860   1.004E+00   0.000E+00  -4.580E-03
 660  7.92785814   0.767  -0.36810   3.76292   7.08090   1.98211   0.03851   1.004E+00   0.000E+00  -4.559E-03
 661  7.92917136   0.767  -0.36808   3.76292   7.08089   1.98211   0.03842   1.004E+00   0.000E+00  -4.538E-03
 662  7.93048062   0.767  -0.36806   3.76292   7.08088   1.98210   0.03833   1.004E+00   0.000E+00  -4.516E-03
 663  7.93178595   0.767  -0.36804   3.76292   7.08087   1.98210   0.03824   1.004E+00   0.000E+00  -4.495E-03
 664  7.93308737   0.767  -0.36802   3.76292   7.08085   1.98209   0.03815   1.004E+00   0.000E+00  -4.473E-03
 665  7.93438490   0.767  -0.36800   3.76292   7.08084   1.98209   0.03806   1.004E+00   0.000E+00  -4.452E-03
 666  7.93567856   0.767  -0.36798   3.76292   7.08083   1.98208   0.03797   1.004E+00   0.000E+00  -4.431E-03
 667  7.93696838   0.767  -0.36796   3.76291   7.08082   1.98208   0.03788   1.004E+00   0.000E+00  -4.409E-03
 668  7.93825438   0.767  -0.36794   3.76291   7.08081   1.98207   0.03779   1.004E+00   0.000E+00  -4.388E-03
 669  7.93953659   0.767  -0.36792   3.76291   7.08079   1.98206   0.03770   1.004E+00   0.000E+00  -4.366E-03
 670  7.94081502   0.767  -0.36790   3.76291   7.08078   1.98206   0.03761   1.004E+00   0.000E+00  -4.345E-03
 671  7.94208970   0.767  -0.36788   3.76291   7.08077   1.98205   0.03751   1.004E+00   0.000E+00  -4.323E-03
 672  7.94336064   0.767  -0.36785   3.76291   7.08076   1.98205   0.03742   1.004E+00   0.000E+00  -4.302E-03
 673  7.94462788   0.767  -0.36783   3.76291   7.08075   1.98204   0.03733   1.004E+00   0.000E+00  -4.281E-03
 674  7.94589144   0.767  -0.36781   3.76290   7.08073   1.98204   0.03724   1.004E+00   0.000E+00  -4.259E-03
 675  7.94715132   0.767  -0.36779   3.76290   7.08072   1.98203   0.03715   1.004E+00   0.000E+00  -4.238E-03
 676  7.94840757   0.767  -0.36777   3.76290   7.08071   1.98203   0.03706   1.004E+00   0.000E+00  -4.216E-03
 677  7.94966019   0.767  -0.36775   3.76290   7.08070   1.98202   0.03697   1.004E+00   0.000E+00  -4.195E-03
 678  7.95090920   0.767  -0.36773   3.76290   7.08069   1.98202   0.03688   1.004E+00   0.000E+00  -4.173E-03
 679  7.95215464   0.767  -0.36771   3.76290   7.08067   1.98201   0.03679   1.004E+00   0.000E+00  -4.152E-03
 680  7.95339651   0.767  -0.36769   3.76290   7.08066   1.98200   0.03670   1.004E+00   0.000E+00  -4.131E-03
 681  7.95463485   0.767  -0.36767   3.76289   7.08065   1.98200   0.03661   1.004E+00   0.000E+00  -4.109E-03
 682  7.95586966   0.767  -0.36765   3.76289   7.08064   1.98199   0.03652   1.004E+00   0.000E+00  -4.088E-03
 683  7.95710097   0.767  -0.36763   3.76289   7.08063   1.98199   0.03643   1.004E+00   0.000E+00  -4.066E-03
 684  7.95832880   0.767  -0.36761   3.76289   7.08061   1.98198   0.03634   1.004E+00   0.000E+00  -4.045E-03
 685  7.95955317   0.767  -0.36759   3.76289   7.08060   1.98198   0.03625   1.004E+00   0.000E+00  -4.023E-03
 686  7.96077409   0.767  -0.36757   3.76289   7.08059   1.98197   0.03616   1.004E+00   0.000E+00  -4.002E-03
 687  7.96199160   0.767  -0.36755   3.76289   7.08058   1.98197   0.03607   1.004E+00   0.000E+00  -3.981E-03
 688  7.96320570   0.767  -0.36753   3.76289   7.08056   1.98196   0.03598   1.004E+00   0.000E+00  -3.959E-03
 689  7.96441641   0.767  -0.36751   3.76288   7.08055   1.98196   0.03589   1.004E+00   0.000E+00  -3.938E-03
 690  7.96562376   0.767  -0.36749   3.76288   7.08054   1.98195   0.03580   1.004E+00   0.000E+00  -3.916E-03
 691  7.96682776   0.767  -0.36747   3.76288   7.08053   1.98194   0.03571   1.003E+00   0.000E+00  -3.895E-03
 692  7.96802844   0.767  -0.36745   3.76288   7.08052   1.98194   0.03562   1.003E+00   0.000E+00  -3.874E-03
 693  7.96922580   0.767  -0.36743   3.76288   7.08050   1.98193   0.03553   1.003E+00   0.000E+00  -3.852E-03
 694  7.97041987   0.767  -0.36741   3.76288   7.08049   1.98193   0.03544   1.003E+00   0.000E+00  -3.831E-03
 695  7.97161067   0.767  -0.36739   3.76288   7.08048   1.98192   0.03535   1.003E+00   0.000E+00  -3.809E-03
 696  7.97279821   0.767  -0.36737   3.76287   7.08047   1.98192   0.03526   1.003E+00   0.000E+00  -3.788E-03
 697  7.97398251   0.767  -0.36735   3.76287   7.08046   1.98191   0.03517   1.003E+00   0.000E+00  -3.766E-03
 698  7.97516359   0.767  -0.36733   3.76287   7.08044   1.98191   0.03508   1.003E+00   0.000E+00  -3.745E-03
 699  7.97634147   0.767  -0.36731   3.76287   7.08043   1.98190   0.03499   1.003E+00   0.000E+00  -3.724E-03
 700  7.97751616   0.767  -0.36729   3.76287   7.08042   1.98190   0.03490   1.003E+00   0.000E+00  -3.702E-03
 701  7.97868769   0.767  -0.36727   3.76287   7.08041   1.98189   0.03481   1.003E+00   0.000E+00  -3.681E-03
 702  7.97985606   0.767  -0.36725   3.76287   7.08040   1.98189   0.03472   1.003E+00   0.000E+00  -3.659E-03
 703  7.98102130   0.767  -0.36723   3.76286   7.08038   1.98188   0.03463   1.003E+00   0.000E+00  -3.638E-03
 704  7.98218342   0.767  -0.36721   3.76286   7.08037   1.98187   0.03454   1.003E+00   0.000E+00  -3.616E-03
 705  7.98334243   0.767  -0.36719   3.76286   7.08036   1.98187   0.03445   1.003E+00   0.000E+00  -3.595E-03
 706  7.98449837   0.767  -0.36717   3.76286   7.08035   1.98186   0.03436   1.003E+00   0.000E+00  -3.574E-03
 707  7.98565123   0.767  -0.36715   3.76286   7.08034   1.98186   0.03428   1.003E+00   0.000E+00  -3.555E-03
 708  7.98680104   0.767  -0.36714   3.76286   7.08033   1.98186   0.03423   1.003E+00   0.000E+00  -3.541E-03
 709  7.98794782   0.767  -0.36712   3.76286   7.08032   1.98186   0.03419   1.003E+00   0.000E+00  -3.526E-03
 710  7.98909157   0.767  -0.36711   3.76286   7.08032   1.98186   0.03414   1.003E+00   0.000E+00  -3.512E-03
 711  7.99023233   0.767  -0.36709   3.76286   7.08031   1.98186   0.03409   1.003E+00   0.000E+00  -3.498E-03
 712  7.99137009   0.767  -0.36707   3.76286   7.08030   1.98186   0.03404   1.003E+00   0.000E+00  -3.484E-03
 713  7.99250488   0.767  -0.36706   3.76286   7.08029   1.98186   0.03399   1.003E+00   0.000E+00  -3.470E-03
 714  7.99363671   0.767  -0.36704   3.76286   7.08029   1.98186   0.03395   1.003E+00   0.000E+00  -3.456E-03
 715  7.99476560   0.766  -0.36703   3.76285   7.08028   1.98186   0.03390   1.003E+00   0.000E+00  -3.441E-03
 716  7.99589157   0.766  -0.36701   3.76285   7.08027   1.98186   0.03385   1.003E+00   0.000E+00  -3.427E-03
 717  7.99701462   0.766  -0.36699   3.76285   7.08027   1.98186   0.03380   1.003E+00   0.000E+00  -3.413E-03
 718  7.99813477   0.766  -0.36698   3.76285   7.08026   1.98186   0.03375   1.003E+00   0.000E+00  -3.399E-03
 719  7.99925205   0.766  -0.36696   3.76285   7.08025   1.98186   0.03370   1.003E+00   0.000E+00  -3.385E-03
 720  8.00036646   0.766  -0.36694   3.76285   7.08024   1.98186   0.03366   1.003E+00   0.000E+00  -3.370E-03
 721  8.00147801   0.766  -0.36693   3.76285   7.08024   1.98186   0.03361   1.003E+00   0.000E+00  -3.356E-03
 722  8.00258673   0.766  -0.36691   3.76285   7.08023   1.98186   0.03356   1.003E+00   0.000E+00  -3.342E-03
 723  8.00369262   0.766  -0.36690   3.76285   7.08022   1.98186   0.03351   1.003E+00   0.000E+00  -3.328E-03
 724  8.00479571   0.766  -0.36688   3.76285   7.08022   1.98185   0.03346   1.003E+00   0.000E+00  -3.314E-03
 725  8.00589600   0.766  -0.36686   3.76285   7.08021   1.98185   0.03342   1.003E+00   0.000E+00  -3.300E-03
 726  8.00699351   0.766  -0.36685   3.76285   7.08020   1.98185   0.03337   1.003E+00   0.000E+00  -3.285E-03
 727  8.00808825   0.766  -0.36683   3.76285   7.08019   1.98185   0.03332   1.003E+00   0.000E+00  -3.271E-03
 728  8.00918024   0.766  -0.36682   3.76285   7.08019   1.98185   0.03327   1.003E+00   0.000E+00  -3.257E-03
 729  8.01026949   0.766  -0.36680   3.76285   7.08018   1.98185   0.03322   1.003E+00   0.000E+00  -3.243E-03
 730  8.01135602   0.766  -0.36678   3.76285   7.08017   1.98185   0.03317   1.003E+00   0.000E+00  -3.229E-03
 731  8.01243983   0.766  -0.36677   3.76285   7.08017   1.98185   0.03313   1.003E+00   0.000E+00  -3.214E-03
 732  8.01352095   0.766  -0.36675   3.76284   7.08016   1.98185   0.03308   1.003E+00   0.000E+00  -3.200E-03
 733  8.01459938   0.766  -0.36674   3.76284   7.08015   1.98185   0.03303   1.003E+00   0.000E+00  -3.186E-03
 734  8.01567514   0.766  -0.36672   3.76284   7.08014   1.98185   0.03298   1.003E+00   0.000E+00  -3.172E-03
 735  8.01674825   0.766  -0.36670   3.76284   7.08014   1.98185   0.03293   1.003E+00   0.000E+00  -3.158E-03
 736  8.01781870   0.766  -0.36669   3.76284   7.08013   1.98185   0.03289   1.003E+00   0.000E+00  -3.144E-03
 737  8.01888653   0.766  -0.36667   3.76284   7.08012   1.98185   0.03284   1.003E+00   0.000E+00  -3.129E-03
 738  8.01995174   0.766  -0.36666   3.76284   7.08012   1.98185   0.03279   1.003E+00   0.000E+00  -3.115E-03
 739  8.02101434   0.766  -0.36664   3.76284   7.08011   1.98185   0.03274   1.003E+00   0.000E+00  -3.101E-03
 740  8.02207434   0.766  -0.36662   3.76284   7.08010   1.98185   0.03269   1.003E+00   0.000E+00  -3.087E-03
 741  8.02313177   0.766  -0.36661   3.76284   7.08009   1.98185   0.03264   1.003E+00   0.000E+00  -3.073E-03
 742  8.02418663   0.766  -0.36659   3.76284   7.08009   1.98185   0.03260   1.003E+00   0.000E+00  -3.058E-03
 743  8.02523893   0.766  -0.36657   3.76284   7.08008   1.98185   0.03255   1.003E+00   0.000E+00  -3.044E-03
 744  8.02628869   0.766  -0.36656   3.76284   7.08007   1.98185   0.03250   1.003E+00   0.000E+00  -3.030E-03
 745  8.02733591   0.766  -0.36654   3.76284   7.08007   1.98185   0.03245   1.003E+00   0.000E+00  -3.016E-03
 746  8.02838062   0.766  -0.36653   3.76284   7.08006   1.98185   0.03240   1.003E+00   0.000E+00  -3.002E-03
 747  8.02942282   0.766  -0.36651   3.76284   7.08005   1.98185   0.03236   1.003E+00   0.000E+00  -2.988E-03
 748  8.03046253   0.766  -0.36649   3.76284   7.08004   1.98185   0.03231   1.003E+00   0.000E+00  -2.973E-03
 749  8.03149975   0.766  -0.36648   3.76283   7.08004   1.98185   0.03226   1.003E+00   0.000E+00  -2.959E-03
 750  8.03253450   0.766  -0.36646   3.76283   7.08003   1.98185   0.03221   1.003E+00   0.000E+00  -2.945E-03
 751  8.03356679   0.766  -0.36645   3.76283   7.08002   1.98185   0.03216   1.003E+00   0.000E+00  -2.931E-03
 752  8.03459664   0.766  -0.36643   3.76283   7.08002   1.98185   0.03211   1.003E+00   0.000E+00  -2.917E-03
 753  8.03562404   0.766  -0.36641   3.76283   7.08001   1.98185   0.03207   1.003E+00   0.000E+00  -2.902E-03
 754  8.03664903   0.766  -0.36640   3.76283   7.08000   1.98185   0.03202   1.003E+00   0.000E+00  -2.888E-03
 755  8.03767160   0.766  -0.36638   3.76283   7.07999   1.98185   0.03197   1.003E+00   0.000E+00  -2.874E-03
 756  8.03869176   0.766  -0.36637   3.76283   7.07999   1.98185   0.03192   1.003E+00   0.000E+00  -2.860E-03
 757  8.03970954   0.766  -0.36635   3.76283   7.07998   1.98184   0.03187   1.002E+00   0.000E+00  -2.846E-03
 758  8.04072494   0.766  -0.36633   3.76283   7.07997   1.98184   0.03183   1.002E+00   0.000E+00  -2.832E-03
 759  8.04173797   0.766  -0.36632   3.76283   7.07997   1.98184   0.03178   1.002E+00   0.000E+00  -2.817E-03
 760  8.04274864   0.766  -0.36630   3.76283   7.07996   1.98184   0.03173   1.002E+00   0.000E+00  -2.803E-03
 761  8.04375696   0.766  -0.36629   3.76283   7.07995   1.98184   0.03168   1.002E+00   0.000E+00  -2.789E-03
 762  8.04476295   0.766  -0.36627   3.76283   7.07994   1.98184   0.03163   1.002E+00   0.000E+00  -2.775E-03
 763  8.04576661   0.766  -0.36625   3.76283   7.07994   1.98184   0.03158   1.002E+00   0.000E+00  -2.761E-03
 764  8.04676796   0.766  -0.36624   3.76283   7.07993   1.98184   0.03154   1.002E+00   0.000E+00  -2.746E-03
 765  8.04776701   0.766  -0.36622   3.76282   7.07992   1.98184   0.03149   1.002E+00   0.000E+00  -2.732E-03
 766  8.04876376   0.766  -0.36620   3.76282   7.07992   1.98184   0.03144   1.002E+00   0.000E+00  -2.718E-03
 767  8.04975823   0.766  -0.36619   3.76282   7.07991   1.98184   0.03139   1.002E+00   0.000E+00  -2.704E-03
 768  8.05075043   0.766  -0.36617   3.76282   7.07990   1.98184   0.03134   1.002E+00   0.000E+00  -2.690E-03
 769  8.05174037   0.766  -0.36616   3.76282   7.07989   1.98184   0.03130   1.002E+00   0.000E+00  -2.676E-03
 770  8.05272806   0.766  -0.36614   3.76282   7.07989   1.98184   0.03125   1.002E+00   0.000E+00  -2.661E-03
 771  8.05371350   0.766  -0.36612   3.76282   7.07988   1.98184   0.03120   1.002E+00   0.000E+00  -2.647E-03
 772  8.05469671   0.766  -0.36611   3.76282   7.07987   1.98184   0.03115   1.002E+00   0.000E+00  -2.633E-03
 773  8.05567771   0.766  -0.36609   3.76282   7.07987   1.98184   0.03110   1.002E+00   0.000E+00  -2.619E-03
 774  8.05665649   0.766  -0.36608   3.76282   7.07986   1.98184   0.03105   1.002E+00   0.000E+00  -2.605E-03
 775  8.05763307   0.766  -0.36606   3.76282   7.07985   1.98184   0.03101   1.002E+00   0.000E+00  -2.590E-03
 776  8.05860746   0.766  -0.36604   3.76282   7.07984   1.98184   0.03096   1.002E+00   0.000E+00  -2.576E-03
 777  8.05957967   0.766  -0.36603   3.76282   7.07984   1.98184   0.03091   1.002E+00   0.000E+00  -2.562E-03
 778  8.06054971   0.766  -0.36601   3.76282   7.07983   1.98184   0.03086   1.002E+00   0.000E+00  -2.548E-03
 779  8.06151758   0.766  -0.36600   3.76282   7.07982   1.98184   0.03081   1.002E+00   0.000E+00  -2.534E-03
 780  8.06248330   0.766  -0.36598   3.76282   7.07982   1.98184   0.03077   1.002E+00   0.000E+00  -2.520E-03
 781  8.06344689   0.766  -0.36596   3.76282   7.07981   1.98184   0.03072   1.002E+00   0.000E+00  -2.505E-03
 782  8.06440833   0.766  -0.36595   3.76281   7.07980   1.98184   0.03067   1.002E+00   0.000E+00  -2.491E-03
 783  8.06536766   0.766  -0.36593   3.76281   7.07979   1.98184   0.03062   1.002E+00   0.000E+00  -2.477E-03
 784  8.06632487   0.766  -0.36591   3.76281   7.07979   1.98184   0.03057   1.002E+00   0.000E+00  -2.463E-03
 785  8.06727997   0.766  -0.36590   3.76281   7.07978   1.98184   0.03052   1.002E+00   0.000E+00  -2.449E-03
 786  8.06823298   0.766  -0.36588   3.76281   7.07977   1.98184   0.03048   1.002E+00   0.000E+00  -2.434E-03
 787  8.06918390   0.766  -0.36587   3.76281   7.07977   1.98184   0.03043   1.002E+00   0.000E+00  -2.420E-03
 788  8.07013274   0.766  -0.36585   3.76281   7.07976   1.98184   0.03038   1.002E+00   0.000E+00  -2.406E-03
 789  8.07107952   0.766  -0.36583   3.76281   7.07975   1.98184   0.03033   1.002E+00   0.000E+00  -2.392E-03
 790  8.07202423   0.766  -0.36582   3.76281   7.07974   1.98183   0.03028   1.002E+00   0.000E+00  -2.378E-03
 791  8.07296690   0.766  -0.36580   3.76281   7.07974   1.98183   0.03024   1.002E+00   0.000E+00  -2.364E-03
 792  8.07390752   0.766  -0.36579   3.76281   7.07973   1.98183   0.03019   1.002E+00   0.000E+00  -2.349E-03
 793  8.07484611   0.766  -0.36577   3.76281   7.07972   1.98183   0.03014   1.002E+00   0.000E+00  -2.335E-03
 794  8.07578268   0.766  -0.36575   3.76281   7.07972   1.98183   0.03009   1.002E+00   0.000E+00  -2.321E-03
 795  8.07671723   0.766  -0.36574   3.76281   7.07971   1.98183   0.03004   1.002E+00   0.000E+00  -2.307E-03
 796  8.07764978   0.766  -0.36572   3.76281   7.07970   1.98183   0.02999   1.002E+00   0.000E+00  -2.293E-03
 797  8.07858032   0.766  -0.36571   3.76281   7.07969   1.98183   0.02995   1.002E+00   0.000E+00  -2.278E-03
 798  8.07950888   0.766  -0.36569   3.76280   7.07969   1.98183   0.02990   1.002E+00   0.000E+00  -2.264E-03
 799  8.08043545   0.766  -0.36567   3.76280   7.07968   1.98183   0.02985   1.002E+00   0.000E+00  -2.250E-03
 800  8.08136006   0.766  -0.36566   3.76280   7.07967   1.98183   0.02980   1.002E+00   0.000E+00  -2.236E-03
 801  8.08228270   0.765  -0.36564   3.76280   7.07967   1.98183   0.02975   1.002E+00   0.000E+00  -2.222E-03
 802  8.08320338   0.765  -0.36563   3.76280   7.07966   1.98183   0.02971   1.002E+00   0.000E+00  -2.208E-03
 803  8.08412211   0.765  -0.36561   3.76280   7.07965   1.98183   0.02966   1.002E+00   0.000E+00  -2.193E-03
 804  8.08503891   0.765  -0.36559   3.76280   7.07964   1.98183   0.02961   1.002E+00   0.000E+00  -2.179E-03
 805  8.08595377   0.765  -0.36558   3.76280   7.07964   1.98183   0.02956   1.002E+00   0.000E+00  -2.165E-03
 806  8.08686672   0.765  -0.36556   3.76280   7.07963   1.98183   0.02951   1.002E+00   0.000E+00  -2.151E-03
 807  8.08777774   0.765  -0.36555   3.76280   7.07963   1.98183   0.02949   1.002E+00   0.000E+00  -2.145E-03
 808  8.08868686   0.765  -0.36554   3.76280   7.07962   1.98183   0.02946   1.002E+00   0.000E+00  -2.139E-03
 809  8.08959408   0.765  -0.36552   3.76280   7.07962   1.98183   0.02943   1.002E+00   0.000E+00  -2.134E-03
 810  8.09049941   0.765  -0.36551   3.76280   7.07961   1.98183   0.02941   1.002E+00   0.000E+00  -2.128E-03
 811  8.09140286   0.765  -0.36550   3.76280   7.07961   1.98184   0.02938   1.002E+00   0.000E+00  -2.123E-03
 812  8.09230443   0.765  -0.36549   3.76280   7.07961   1.98184   0.02936   1.002E+00   0.000E+00  -2.117E-03
 813  8.09320413   0.765  -0.36547   3.76280   7.07960   1.98184   0.02933   1.002E+00   0.000E+00  -2.112E-03
 814  8.09410197   0.765  -0.36546   3.76280   7.07960   1.98184   0.02931   1.002E+00   0.000E+00  -2.106E-03
 815  8.09499796   0.765  -0.36545   3.76280   7.07959   1.98184   0.02928   1.002E+00   0.000E+00  -2.101E-03
 816  8.09589211   0.765  -0.36544   3.76280   7.07959   1.98184   0.02925   1.002E+00   0.000E+00  -2.095E-03
 817  8.09678441   0.765  -0.36542   3.76280   7.07959   1.98184   0.02923   1.002E+00   0.000E+00  -2.090E-03
 818  8.09767489   0.765  -0.36541   3.76280   7.07958   1.98184   0.02920   1.002E+00   0.000E+00  -2.084E-03
 819  8.09856355   0.765  -0.36540   3.76280   7.07958   1.98185   0.02918   1.002E+00   0.000E+00  -2.079E-03
 820  8.09945039   0.765  -0.36539   3.76280   7.07957   1.98185   0.02915   1.002E+00   0.000E+00  -2.074E-03
 821  8.10033542   0.765  -0.36537   3.76280   7.07957   1.98185   0.02913   1.002E+00   0.000E+00  -2.068E-03
 822  8.10121866   0.765  -0.36536   3.76279   7.07957   1.98185   0.02910   1.002E+00   0.000E+00  -2.063E-03
 823  8.10210010   0.765  -0.36535   3.76279   7.07956   1.98185   0.02907   1.002E+00   0.000E+00  -2.057E-03
 824  8.10297976   0.765  -0.36534   3.76279   7.07956   1.98185   0.02905   1.002E+00   0.000E+00  -2.052E-03
 825  8.10385764   0.765  -0.36532   3.76279   7.07955   1.98185   0.02902   1.002E+00   0.000E+00  -2.046E-03
 826  8.10473374   0.765  -0.36531   3.76279   7.07955   1.98185   0.02900   1.002E+00   0.000E+00  -2.041E-03
 827  8.10560809   0.765  -0.36530   3.76279   7.07955   1.98186   0.02897   1.002E+00   0.000E+00  -2.035E-03
 828  8.10648067   0.765  -0.36529   3.76279   7.07954   1.98186   0.02895   1.002E+00   0.000E+00  -2.030E-03
 829  8.10735151   0.765  -0.36527   3.76279   7.07954   1.98186   0.02892   1.002E+00   0.000E+00  -2.024E-03
 830  8.10822061   0.765  -0.36526   3.76279   7.07953   1.98186   0.02889   1.002E+00   0.000E+00  -2.019E-03
 831  8.10908797   0.765  -0.36525   3.76279   7.07953   1.98186   0.02887   1.002E+00   0.000E+00  -2.013E-03
 832  8.10995360   0.765  -0.36524   3.76279   7.07953   1.98186   0.02884   1.002E+00   0.000E+00  -2.008E-03
 833  8.11081750   0.765  -0.36523   3.76279   7.07952   1.98186   0.02882   1.002E+00   0.000E+00  -2.002E-03
 834  8.11167970   0.765  -0.36521   3.76279   7.07952   1.98186   0.02879   1.002E+00   0.000E+00  -1.997E-03
 835  8.11254018   0.765  -0.36520   3.76279   7.07951   1.98187   0.02877   1.002E+00   0.000E+00  -1.991E-03
 836  8.11339896   0.765  -0.36519   3.76279   7.07951   1.98187   0.02874   1.002E+00   0.000E+00  -1.986E-03
 837  8.11425605   0.765  -0.36518   3.76279   7.07951   1.98187   0.02871   1.002E+00   0.000E+00  -1.980E-03
 838  8.11511145   0.765  -0.36516   3.76279   7.07950   1.98187   0.02869   1.002E+00   0.000E+00  -1.975E-03
 839  8.11596517   0.765  -0.36515   3.76279   7.07950   1.98187   0.02866   1.002E+00   0.000E+00  -1.969E-03
 840  8.11681722   0.765  -0.36514   3.76279   7.07949   1.98187   0.02864   1.002E+00   0.000E+00  -1.964E-03
 841  8.11766759   0.765  -0.36513   3.76279   7.07949   1.98187   0.02861   1.002E+00   0.000E+00  -1.958E-03
 842  8.11851630   0.765  -0.36511   3.76279   7.07949   1.98187   0.02859   1.002E+00   0.000E+00  -1.953E-03
 843  8.11936336   0.765  -0.36510   3.76279   7.07948   1.98187   0.02856   1.002E+00   0.000E+00  -1.947E-03
 844  8.12020877   0.765  -0.36509   3.76279   7.07948   1.98188   0.02853   1.002E+00   0.000E+00  -1.942E-03
 845  8.12105254   0.765  -0.36508   3.76279   7.07947   1.98188   0.02851   1.002E+00   0.000E+00  -1.936E-03
 846  8.12189467   0.765  -0.36506   3.76279   7.07947   1.98188   0.02848   1.002E+00   0.000E+00  -1.931E-03
 847  8.12273517   0.765  -0.36505   3.76279   7.07946   1.98188   0.02846   1.002E+00   0.000E+00  -1.925E-03
 848  8.12357405   0.765  -0.36504   3.76279   7.07946   1.98188   0.02843   1.002E+00   0.000E+00  -1.920E-03
 849  8.12441131   0.765  -0.36503   3.76279   7.07946   1.98188   0.02840   1.002E+00   0.000E+00  -1.914E-03
 850  8.12524696   0.765  -0.36501   3.76279   7.07945   1.98188   0.02838   1.002E+00   0.000E+00  -1.909E-03
 851  8.12608100   0.765  -0.36500   3.76279   7.07945   1.98188   0.02835   1.002E+00   0.000E+00  -1.903E-03
 852  8.12691345   0.765  -0.36499   3.76279   7.07944   1.98189   0.02833   1.002E+00   0.000E+00  -1.898E-03
 853  8.12774430   0.765  -0.36498   3.76278   7.07944   1.98189   0.02830   1.002E+00   0.000E+00  -1.892E-03
 854  8.12857357   0.765  -0.36496   3.76278   7.07944   1.98189   0.02828   1.002E+00   0.000E+00  -1.887E-03
 855  8.12940125   0.765  -0.36495   3.76278   7.07943   1.98189   0.02825   1.002E+00   0.000E+00  -1.882E-03
 856  8.13022736   0.765  -0.36494   3.76278   7.07943   1.98189   0.02822   1.002E+00   0.000E+00  -1.876E-03
 857  8.13105191   0.765  -0.36493   3.76278   7.07942   1.98189   0.02820   1.002E+00   0.000E+00  -1.871E-03
 858  8.13187489   0.765  -0.36491   3.76278   7.07942   1.98189   0.02817   1.002E+00   0.000E+00  -1.865E-03
 859  8.13269631   0.765  -0.36490   3.76278   7.07942   1.98189   0.02815   1.002E+00   0.000E+00  -1.860E-03
 860  8.13351619   0.765  -0.36489   3.76278   7.07941   1.98190   0.02812   1.002E+00   0.000E+00  -1.854E-03
 861  8.13433452   0.765  -0.36488   3.76278   7.07941   1.98190   0.02810   1.002E+00   0.000E+00  -1.849E-03
 862  8.13515130   0.765  -0.36487   3.76278   7.07940   1.98190   0.02807   1.002E+00   0.000E+00  -1.843E-03
 863  8.13596656   0.765  -0.36485   3.76278   7.07940   1.98190   0.02804   1.002E+00   0.000E+00  -1.838E-03
 864  8.13678029   0.765  -0.36484   3.76278   7.07940   1.98190   0.02802   1.002E+00   0.000E+00  -1.832E-03
 865  8.13759250   0.765  -0.36483   3.76278   7.07939   1.98190   0.02799   1.002E+00   0.000E+00  -1.827E-03
 866  8.13840319   0.765  -0.36482   3.76278   7.07939   1.98190   0.02797   1.002E+00   0.000E+00  -1.821E-03
 867  8.13921237   0.765  -0.36480   3.76278   7.07938   1.98190   0.02794   1.002E+00   0.000E+00  -1.816E-03
 868  8.14002004   0.765  -0.36479   3.76278   7.07938   1.98190   0.02792   1.002E+00   0.000E+00  -1.810E-03
 869  8.14082622   0.765  -0.36478   3.76278   7.07938   1.98191   0.02789   1.001E+00   0.000E+00  -1.805E-03
 870  8.14163090   0.765  -0.36477   3.76278   7.07937   1.98191   0.02786   1.001E+00   0.000E+00  -1.799E-03
 871  8.14243410   0.765  -0.36475   3.76278   7.07937   1.98191   0.02784   1.001E+00   0.000E+00  -1.794E-03
 872  8.14323581   0.765  -0.36474   3.76278   7.07936   1.98191   0.02781   1.001E+00   0.000E+00  -1.788E-03
 873  8.14403604   0.765  -0.36473   3.76278   7.07936   1.98191   0.02779   1.001E+00   0.000E+00  -1.783E-03
 874  8.14483481   0.765  -0.36472   3.76278   7.07936   1.98191   0.02776   1.001E+00   0.000E+00  -1.777E-03
 875  8.14563210   0.765  -0.36470   3.76278   7.07935   1.98191   0.02774   1.001E+00   0.000E+00  -1.772E-03
 876  8.14642794   0.765  -0.36469   3.76278   7.07935   1.98191   0.02771   1.001E+00   0.000E+00  -1.766E-03
 877  8.14722232   0.765  -0.36468   3.76278   7.07934   1.98192   0.02768   1.001E+00   0.000E+00  -1.761E-03
 878  8.14801524   0.765  -0.36467   3.76278   7.07934   1.98192   0.02766   1.001E+00   0.000E+00  -1.755E-03
 879  8.14880673   0.765  -0.36465   3.76278   7.07934   1.98192   0.02763   1.001E+00   0.000E+00  -1.750E-03
 880  8.14959677   0.765  -0.36464   3.76278   7.07933   1.98192   0.02761   1.001E+00   0.000E+00  -1.744E-03
 881  8.15038538   0.765  -0.36463   3.76278   7.07933   1.98192   0.02758   1.001E+00   0.000E+00  -1.739E-03
 882  8.15117256   0.765  -0.36462   3.76278   7.07932   1.98192   0.02756   1.001E+00   0.000E+00  -1.733E-03
 883  8.15195832   0.765  -0.36460   3.76278   7.07932   1.98192   0.02753   1.001E+00   0.000E+00  -1.728E-03
 884  8.15274266   0.765  -0.36459   3.76277   7.07932   1.98192   0.02750   1.001E+00   0.000E+00  -1.722E-03
 885  8.15352558   0.764  -0.36458   3.76277   7.07931   1.98193   0.02748   1.001E+00   0.000E+00  -1.717E-03
 886  8.15430709   0.764  -0.36457   3.76277   7.07931   1.98193   0.02745   1.001E+00   0.000E+00  -1.711E-03
 887  8.15508720   0.764  -0.36455   3.76277   7.07930   1.98193   0.02743   1.001E+00   0.000E+00  -1.706E-03
 888  8.15586591   0.764  -0.36454   3.76277   7.07930   1.98193   0.02740   1.001E+00   0.000E+00  -1.701E-03
 889  8.15664323   0.764  -0.36453   3.76277   7.07930   1.98193   0.02738   1.001E+00   0.000E+00  -1.695E-03
 890  8.15741916   0.764  -0.36452   3.76277   7.07929   1.98193   0.02735   1.001E+00   0.000E+00  -1.690E-03
 891  8.15819371   0.764  -0.36450   3.76277   7.07929   1.98193   0.02732   1.001E+00   0.000E+00  -1.684E-03
 892  8.15896687   0.764  -0.36449   3.76277   7.07928   1.98193   0.02730   1.001E+00   0.000E+00  -1.679E-03
 893  8.15973866   0.764  -0.36448   3.76277   7.07928   1.98194   0.02727   1.001E+00   0.000E+00  -1.673E-03
 894  8.16050909   0.764  -0.36447   3.76277   7.07928   1.98194   0.02725   1.001E+00   0.000E+00  -1.668E-03
 895  8.16127815   0.764  -0.36446   3.76277   7.07927   1.98194   0.02722   1.001E+00   0.000E+00  -1.662E-03
 896  8.16204584   0.764  -0.36444   3.76277   7.07927   1.98194   0.02720   1.001E+00   0.000E+00  -1.657E-03
 897  8.16281219   0.764  -0.36443   3.76277   7.07926   1.98194   0.02717   1.001E+00   0.000E+00  -1.651E-03
 898  8.16357718   0.764  -0.36442   3.76277   7.07926   1.98194   0.02714   1.001E+00   0.000E+00  -1.646E-03
 899  8.16434083   0.764  -0.36441   3.76277   7.07926   1.98194   0.02712   1.001E+00   0.000E+00  -1.640E-03
 900  8.16510314   0.764  -0.36439   3.76277   7.07925   1.98194   0.02709   1.001E+00   0.000E+00  -1.635E-03
 901  8.16586412   0.764  -0.36438   3.76277   7.07925   1.98194   0.02707   1.001E+00   0.000E+00  -1.629E-03
 902  8.16662376   0.764  -0.36437   3.76277   7.07924   1.98195   0.02704   1.001E+00   0.000E+00  -1.624E-03
 903  8.16738207   0.764  -0.36436   3.76277   7.07924   1.98195   0.02702   1.001E+00   0.000E+00  -1.618E-03
 904  8.16813907   0.764  -0.36434   3.76277   7.07923   1.98195   0.02699   1.001E+00   0.000E+00  -1.613E-03
 905  8.16889475   0.764  -0.36433   3.76277   7.07923   1.98195   0.02696   1.001E+00   0.000E+00  -1.607E-03
 906  8.16964911   0.764  -0.36432   3.76277   7.07923   1.98195   0.02694   1.001E+00   0.000E+00  -1.602E-03
 907  8.17040217   0.764  -0.36431   3.76277   7.07922   1.98195   0.02691   1.001E+00   0.000E+00  -1.596E-03
 908  8.17115392   0.764  -0.36429   3.76277   7.07922   1.98195   0.02689   1.001E+00   0.000E+00  -1.591E-03
 909  8.17190437   0.764  -0.36428   3.76277   7.07921   1.98195   0.02686   1.001E+00   0.000E+00  -1.585E-03
 910  8.17265353   0.764  -0.36427   3.76277   7.07921   1.98196   0.02684   1.001E+00   0.000E+00  -1.580E-03
 911  8.17340140   0.764  -0.36426   3.76277   7.07921   1.98196   0.02681   1.001E+00   0.000E+00  -1.574E-03
 912  8.17414799   0.764  -0.36424   3.76277   7.07920   1.98196   0.02678   1.001E+00   0.000E+00  -1.569E-03
 913  8.17489329   0.764  -0.36423   3.76277   7.07920   1.98196   0.02676   1.001E+00   0.000E+00  -1.563E-03
 914  8.17563731   0.764  -0.36422   3.76277   7.07919   1.98196   0.02673   1.001E+00   0.000E+00  -1.558E-03
 915  8.17638007   0.764  -0.36421   3.76276   7.07919   1.98196   0.02671   1.001E+00   0.000E+00  -1.552E-03
 916  8.17712155   0.764  -0.36419   3.76276   7.07919   1.98196   0.02668   1.001E+00   0.000E+00  -1.547E-03
 917  8.17786177   0.764  -0.36418   3.76276   7.07918   1.98196   0.02666   1.001E+00   0.000E+00  -1.541E-03
 918  8.17860073   0.764  -0.36417   3.76276   7.07918   1.98197   0.02663   1.001E+00   0.000E+00  -1.536E-03
 919  8.17933844   0.764  -0.36416   3.76276   7.07917   1.98197   0.02660   1.001E+00   0.000E+00  -1.530E-03
 920  8.18007490   0.764  -0.36414   3.76276   7.07917   1.98197   0.02658   1.001E+00   0.000E+00  -1.525E-03
 921  8.18081010   0.764  -0.36413   3.76276   7.07917   1.98197   0.02655   1.001E+00   0.000E+00  -1.519E-03
 922  8.18154407   0.764  -0.36412   3.76276   7.07916   1.98197   0.02653   1.001E+00   0.000E+00  -1.514E-03
 923  8.18227680   0.764  -0.36411   3.76276   7.07916   1.98197   0.02650   1.001E+00   0.000E+00  -1.509E-03
 924  8.18300829   0.764  -0.36409   3.76276   7.07915   1.98197   0.02647   1.001E+00   0.000E+00  -1.503E-03
 925  8.18373856   0.764  -0.36408   3.76276   7.07915   1.98197   0.02645   1.001E+00   0.000E+00  -1.498E-03
 926  8.18446759   0.764  -0.36407   3.76276   7.07915   1.98198   0.02642   1.001E+00   0.000E+00  -1.492E-03
 927  8.18519541   0.764  -0.36406   3.76276   7.07914   1.98198   0.02640   1.001E+00   0.000E+00  -1.487E-03
 928  8.18592201   0.764  -0.36405   3.76276   7.07914   1.98198   0.02637   1.001E+00   0.000E+00  -1.481E-03
 929  8.18664739   0.764  -0.36403   3.76276   7.07913   1.98198   0.02635   1.001E+00   0.000E+00  -1.476E-03
 930  8.18737157   0.764  -0.36402   3.76276   7.07913   1.98198   0.02632   1.001E+00   0.000E+00  -1.470E-03
 931  8.18809454   0.764  -0.36401   3.76276   7.07913   1.98198   0.02630   1.001E+00   0.000E+00  -1.467E-03
 932  8.18881631   0.764  -0.36400   3.76276   7.07913   1.98199   0.02628   1.001E+00   0.000E+00  -1.464E-03
 933  8.18953688   0.764  -0.36399   3.76276   7.07912   1.98199   0.02627   1.001E+00   0.000E+00  -1.460E-03
 934  8.19025625   0.764  -0.36398   3.76276   7.07912   1.98199   0.02625   1.001E+00   0.000E+00  -1.457E-03
 935  8.19097444   0.764  -0.36397   3.76276   7.07912   1.98200   0.02623   1.001E+00   0.000E+00  -1.454E-03
 936  8.19169144   0.764  -0.36396   3.76276   7.07912   1.98200   0.02621   1.001E+00   0.000E+00  -1.451E-03
 937  8.19240726   0.764  -0.36395   3.76276   7.07912   1.98200   0.02619   1.001E+00   0.000E+00  -1.447E-03
 938  8.19312190   0.764  -0.36394   3.76276   7.07912   1.98200   0.02618   1.001E+00   0.000E+00  -1.444E-03
 939  8.19383537   0.764  -0.36393   3.76276   7.07911   1.98201   0.02616   1.001E+00   0.000E+00  -1.441E-03
 940  8.19454767   0.764  -0.36392   3.76276   7.07911   1.98201   0.02614   1.001E+00   0.000E+00  -1.437E-03
 941  8.19525880   0.764  -0.36390   3.76276   7.07911   1.98201   0.02612   1.001E+00   0.000E+00  -1.434E-03
 942  8.19596877   0.764  -0.36389   3.76276   7.07911   1.98202   0.02610   1.001E+00   0.000E+00  -1.431E-03
 943  8.19667758   0.764  -0.36388   3.76276   7.07911   1.98202   0.02609   1.001E+00   0.000E+00  -1.428E-03
 944  8.19738524   0.764  -0.36387   3.76276   7.07910   1.98202   0.02607   1.001E+00   0.000E+00  -1.424E-03
 945  8.19809174   0.764  -0.36386   3.76276   7.07910   1.98203   0.02605   1.001E+00   0.000E+00  -1.421E-03
 946  8.19879710   0.764  -0.36385   3.76276   7.07910   1.98203   0.02603   1.001E+00   0.000E+00  -1.418E-03
 947  8.19950131   0.764  -0.36384   3.76276   7.07910   1.98203   0.02602   1.001E+00   0.000E+00  -1.415E-03
 948  8.20020438   0.764  -0.36383   3.76276   7.07910   1.98203   0.02600   1.001E+00   0.000E+00  -1.411E-03
 949  8.20090632   0.764  -0.36382   3.76276   7.07910   1.98204   0.02598   1.001E+00   0.000E+00  -1.408E-03
 950  8.20160712   0.764  -0.36381   3.76276   7.07909   1.98204   0.02596   1.001E+00   0.000E+00  -1.405E-03
 951  8.20230680   0.764  -0.36380   3.76276   7.07909   1.98204   0.02594   1.001E+00   0.000E+00  -1.402E-03
 952  8.20300535   0.764  -0.36379   3.76276   7.07909   1.98205   0.02593   1.001E+00   0.000E+00  -1.398E-03
 953  8.20370277   0.764  -0.36378   3.76276   7.07909   1.98205   0.02591   1.001E+00   0.000E+00  -1.395E-03
 954  8.20439908   0.764  -0.36377   3.76276   7.07909   1.98205   0.02589   1.001E+00   0.000E+00  -1.392E-03
 955  8.20509428   0.764  -0.36376   3.76276   7.07909   1.98206   0.02587   1.001E+00   0.000E+00  -1.389E-03
 956  8.20578836   0.764  -0.36375   3.76276   7.07908   1.98206   0.02585   1.001E+00   0.000E+00  -1.385E-03
 957  8.20648134   0.764  -0.36374   3.76276   7.07908   1.98206   0.02584   1.001E+00   0.000E+00  -1.382E-03
 958  8.20717321   0.764  -0.36373   3.76276   7.07908   1.98207   0.02582   1.001E+00   0.000E+00  -1.379E-03
 959  8.20786398   0.764  -0.36372   3.76276   7.07908   1.98207   0.02580   1.001E+00   0.000E+00  -1.375E-03
 960  8.20855366   0.764  -0.36371   3.76276   7.07908   1.98207   0.02578   1.001E+00   0.000E+00  -1.372E-03
 961  8.20924224   0.764  -0.36369   3.76276   7.07907   1.98207   0.02576   1.001E+00   0.000E+00  -1.369E-03
 962  8.20992973   0.764  -0.36368   3.76276   7.07907   1.98208   0.02575   1.001E+00   0.000E+00  -1.366E-03
 963  8.21061613   0.764  -0.36367   3.76276   7.07907   1.98208   0.02573   1.001E+00   0.000E+00  -1.362E-03
 964  8.21130145   0.764  -0.36366   3.76276   7.07907   1.98208   0.02571   1.001E+00   0.000E+00  -1.359E-03
 965  8.21198570   0.764  -0.36365   3.76276   7.07907   1.98209   0.02569   1.001E+00   0.000E+00  -1.356E-03
 966  8.21266886   0.764  -0.36364   3.76276   7.07907   1.98209   0.02567   1.001E+00   0.000E+00  -1.353E-03
 967  8.21335095   0.764  -0.36363   3.76276   7.07906   1.98209   0.02566   1.001E+00   0.000E+00  -1.349E-03
 968  8.21403198   0.764  -0.36362   3.76276   7.07906   1.98210   0.02564   1.001E+00   0.000E+00  -1.346E-03
 969  8.21471193   0.763  -0.36361   3.76276   7.07906   1.98210   0.02562   1.001E+00   0.000E+00  -1.343E-03
 970  8.21539083   0.763  -0.36360   3.76276   7.07906   1.98210   0.02560   1.001E+00   0.000E+00  -1.340E-03
 971  8.21606866   0.763  -0.36359   3.76276   7.07906   1.98210   0.02558   1.001E+00   0.000E+00  -1.336E-03
 972  8.21674544   0.763  -0.36358   3.76276   7.07905   1.98211   0.02557   1.001E+00   0.000E+00  -1.333E-03
 973  8.21742116   0.763  -0.36357   3.76276   7.07905   1.98211   0.02555   1.001E+00   0.000E+00  -1.330E-03
 974  8.21809584   0.763  -0.36356   3.76276   7.07905   1.98211   0.02553   1.001E+00   0.000E+00  -1.327E-03
 975  8.21876947   0.763  -0.36355   3.76276   7.07905   1.98212   0.02551   1.001E+00   0.000E+00  -1.323E-03
 976  8.21944205   0.763  -0.36354   3.76276   7.07905   1.98212   0.02549   1.001E+00   0.000E+00  -1.320E-03
 977  8.22011360   0.763  -0.36353   3.76276   7.07905   1.98212   0.02548   1.001E+00   0.000E+00  -1.317E-03
 978  8.22078411   0.763  -0.36352   3.76276   7.07904   1.98213   0.02546   1.001E+00   0.000E+00  -1.314E-03
 979  8.22145358   0.763  -0.36351   3.76276   7.07904   1.98213   0.02544   1.001E+00   0.000E+00  -1.310E-03
 980  8.22212203   0.763  -0.36350   3.76276   7.07904   1.98213   0.02542   1.001E+00   0.000E+00  -1.307E-03
 981  8.22278944   0.763  -0.36348   3.76276   7.07904   1.98214   0.02540   1.001E+00   0.000E+00  -1.304E-03
 982  8.22345584   0.763  -0.36347   3.76276   7.07904   1.98214   0.02539   1.001E+00   0.000E+00  -1.300E-03
 983  8.22412121   0.763  -0.36346   3.76276   7.07903   1.98214   0.02537   1.001E+00   0.000E+00  -1.297E-03
 984  8.22478556   0.763  -0.36345   3.76276   7.07903   1.98214   0.02535   1.001E+00   0.000E+00  -1.294E-03
 985  8.22544890   0.763  -0.36344   3.76276   7.07903   1.98215   0.02533   1.001E+00   0.000E+00  -1.291E-03
 986  8.22611123   0.763  -0.36343   3.76276   7.07903   1.98215   0.02532   1.001E+00   0.000E+00  -1.287E-03
 987  8.22677255   0.763  -0.36342   3.76276   7.07903   1.98215   0.02530   1.001E+00   0.000E+00  -1.284E-03
 988  8.22743286   0.763  -0.36341   3.76276   7.07903   1.98216   0.02528   1.001E+00   0.000E+00  -1.281E-03
 989  8.22809217   0.763  -0.36340   3.76276   7.07902   1.98216   0.02526   1.001E+00   0.000E+00  -1.278E-03
 990  8.22875049   0.763  -0.36339   3.76276   7.07902   1.98216   0.02524   1.001E+00   0.000E+00  -1.274E-03
 991  8.22940780   0.763  -0.36338   3.76276   7.07902   1.98217   0.02523   1.001E+00   0.000E+00  -1.271E-03
 992  8.23006412   0.763  -0.36337   3.76276   7.07902   1.98217   0.02521   1.001E+00   0.000E+00  -1.268E-03
 993  8.23071946   0.763  -0.36336   3.76276   7.07902   1.98217   0.02519   1.001E+00   0.000E+00  -1.265E-03
 994  8.23137380   0.763  -0.36335   3.76276   7.07901   1.98217   0.02517   1.001E+00   0.000E+00  -1.261E-03
 995  8.23202716   0.763  -0.36334   3.76276   7.07901   1.98218   0.02515   1.001E+00   0.000E+00  -1.258E-03
 996  8.23267954   0.763  -0.36333   3.76276   7.07901   1.98218   0.02514   1.001E+00   0.000E+00  -1.255E-03
 997  8.23333094   0.763  -0.36332   3.76276   7.07901   1.98218   0.02512   1.001E+00   0.000E+00  -1.252E-03
 998  8.23398136   0.763  -0.36331   3.76276   7.07901   1.98219   0.02510   1.001E+00   0.000E+00  -1.248E-03
 999  8.23463082   0.763  -0.36330   3.76276   7.07901   1.98219   0.02508   1.001E+00   0.000E+00  -1.245E-03
1000  8.23527930   0.763  -0.36329   3.76276   7.07900   1.98219   0.02506   1.001E+00   0.000E+00  -1.242E-03
1001  8.23592681   0.763  -0.36327   3.76276   7.07900   1.98220   0.02505   1.001E+00   0.000E+00  -1.239E-03
1002  8.23657337   0.763  -0.36326   3.76276   7.07900   1.98220   0.02503   1.001E+00   0.000E+00  -1.235E-03
1003  8.23721896   0.763  -0.36325   3.76276   7.07900   1.98220   0.02501   1.001E+00   0.000E+00  -1.232E-03
1004  8.23786359   0.763  -0.36324   3.76276   7.07900   1.98221   0.02499   1.001E+00   0.000E+00  -1.229E-03
1005  8.23850726   0.763  -0.36323   3.76276   7.07899   1.98221   0.02497   1.001E+00   0.000E+00  -1.225E-03
1006  8.23914999   0.763  -0.36322   3.76276   7.07899   1.98221   0.02496   1.001E+00   0.000E+00  -1.222E-03
1007  8.23979176   0.763  -0.36321   3.76276   7.07899   1.98221   0.02494   1.001E+00   0.000E+00  -1.219E-03
1008  8.24043259   0.763  -0.36320   3.76276   7.07899   1.98222   0.02492   1.001E+00   0.000E+00  -1.216E-03
1009  8.24107247   0.763  -0.36319   3.76276   7.07899   1.98222   0.02490   1.001E+00   0.000E+00  -1.212E-03
1010  8.24171141   0.763  -0.36318   3.76276   7.07899   1.98222   0.02488   1.001E+00   0.000E+00  -1.209E-03
1011  8.24234942   0.763  -0.36317   3.76275   7.07898   1.98223   0.02487   1.001E+00   0.000E+00  -1.206E-03
1012  8.24298648   0.763  -0.36316   3.76275   7.07898   1.98223   0.02485   1.001E+00   0.000E+00  -1.203E-03
1013  8.24362262   0.763  -0.36315   3.76275   7.07898   1.98223   0.02483   1.001E+00   0.000E+00  -1.199E-03
1014  8.24425782   0.763  -0.36314   3.76275   7.07898   1.98224   0.02481   1.001E+00   0.000E+00  -1.196E-03
1015  8.24489210   0.763  -0.36313   3.76275   7.07898   1.98224   0.02479   1.001E+00   0.000E+00  -1.193E-03
1016  8.24552545   0.763  -0.36312   3.76275   7.07898   1.98224   0.02478   1.001E+00   0.000E+00  -1.190E-03
1017  8.24615788   0.763  -0.36311   3.76275   7.07897   1.98224   0.02476   1.001E+00   0.000E+00  -1.186E-03
1018  8.24678939   0.763  -0.36310   3.76275   7.07897   1.98225   0.02474   1.001E+00   0.000E+00  -1.183E-03
1019  8.24741998   0.763  -0.36309   3.76275   7.07897   1.98225   0.02472   1.001E+00   0.000E+00  -1.180E-03
1020  8.24804966   0.763  -0.36308   3.76275   7.07897   1.98225   0.02470   1.001E+00   0.000E+00  -1.177E-03
1021  8.24867842   0.763  -0.36306   3.76275   7.07897   1.98226   0.02469   1.001E+00   0.000E+00  -1.173E-03
1022  8.24930628   0.763  -0.36305   3.76275   7.07896   1.98226   0.02467   1.001E+00   0.000E+00  -1.170E-03
1023  8.24993323   0.763  -0.36304   3.76275   7.07896   1.98226   0.02465   1.001E+00   0.000E+00  -1.167E-03
1024  8.25055928   0.763  -0.36303   3.76275   7.07896   1.98227   0.02463   1.001E+00   0.000E+00  -1.164E-03
1025  8.25118442   0.763  -0.36302   3.76275   7.07896   1.98227   0.02461   1.001E+00   0.000E+00  -1.160E-03
1026  8.25180867   0.763  -0.36301   3.76275   7.07896   1.98227   0.02460   1.001E+00   0.000E+00  -1.157E-03
1027  8.25243202   0.763  -0.36300   3.76275   7.07896   1.98228   0.02458   1.001E+00   0.000E+00  -1.154E-03
1028  8.25305448   0.763  -0.36299   3.76275   7.07895   1.98228   0.02456   1.001E+00   0.000E+00  -1.150E-03
1029  8.25367605   0.763  -0.36298   3.76275   7.07895   1.98228   0.02454   1.001E+00   0.000E+00  -1.147E-03
1030  8.25429672   0.763  -0.36297   3.76275   7.07895   1.98228   0.02453   1.001E+00   0.000E+00  -1.144E-03
1031  8.25491652   0.763  -0.36296   3.76275   7.07895   1.98229   0.02451   1.001E+00   0.000E+00  -1.141E-03
1032  8.25553543   0.763  -0.36295   3.76275   7.07895   1.98229   0.02449   1.001E+00   0.000E+00  -1.137E-03
1033  8.25615345   0.763  -0.36294   3.76275   7.07894   1.98229   0.02447   1.001E+00   0.000E+00  -1.134E-03
1034  8.25677061   0.763  -0.36293   3.76275   7.07894   1.98230   0.02445   1.001E+00   0.000E+00  -1.131E-03
1035  8.25738688   0.763  -0.36292   3.76275   7.07894   1.98230   0.02444   1.001E+00   0.000E+00  -1.128E-03
1036  8.25800228   0.763  -0.36291   3.76275   7.07894   1.98230   0.02442   1.001E+00   0.000E+00  -1.124E-03
1037  8.25861681   0.763  -0.36290   3.76275   7.07894   1.98231   0.02440   1.001E+00   0.000E+00  -1.121E-03
1038  8.25923047   0.763  -0.36289   3.76275   7.07894   1.98231   0.02438   1.001E+00   0.000E+00  -1.118E-03
1039  8.25984327   0.763  -0.36288   3.76275   7.07893   1.98231   0.02436   1.001E+00   0.000E+00  -1.115E-03
1040  8.26045520   0.763  -0.36287   3.76275   7.07893   1.98231   0.02435   1.001E+00   0.000E+00  -1.111E-03
1041  8.26106628   0.763  -0.36285   3.76275   7.07893   1.98232   0.02433   1.001E+00   0.000E+00  -1.108E-03
1042  8.26167649   0.763  -0.36284   3.76275   7.07893   1.98232   0.02431   1.001E+00   0.000E+00  -1.105E-03
1043  8.26228585   0.763  -0.36283   3.76275   7.07893   1.98232   0.02429   1.001E+00   0.000E+00  -1.102E-03
1044  8.26289435   0.763  -0.36282   3.76275   7.07892   1.98233   0.02427   1.001E+00   0.000E+00  -1.098E-03
1045  8.26350200   0.763  -0.36281   3.76275   7.07892   1.98233   0.02426   1.001E+00   0.000E+00  -1.095E-03
1046  8.26410881   0.763  -0.36280   3.76275   7.07892   1.98233   0.02424   1.001E+00   0.000E+00  -1.092E-03
1047  8.26471476   0.763  -0.36279   3.76275   7.07892   1.98234   0.02422   1.001E+00   0.000E+00  -1.088E-03
1048  8.26531987   0.763  -0.36278   3.76275   7.07892   1.98234   0.02420   1.001E+00   0.000E+00  -1.085E-03
1049  8.26592414   0.763  -0.36277   3.76275   7.07892   1.98234   0.02418   1.001E+00   0.000E+00  -1.082E-03
1050  8.26652757   0.763  -0.36276   3.76275   7.07891   1.98235   0.02417   1.001E+00   0.000E+00  -1.079E-03
1051  8.26713017   0.763  -0.36275   3.76275   7.07891   1.98235   0.02415   1.001E+00   0.000E+00  -1.075E-03
1052  8.26773193   0.762  -0.36274   3.76275   7.07891   1.98235   0.02413   1.001E+00   0.000E+00  -1.072E-03
1053  8.26833285   0.762  -0.36273   3.76275   7.07891   1.98235   0.02411   1.001E+00   0.000E+00  -1.069E-03
1054  8.26893295   0.762  -0.36272   3.76275   7.07891   1.98236   0.02409   1.001E+00   0.000E+00  -1.066E-03
1055  8.26953221   0.762  -0.36271   3.76275   7.07890   1.98236   0.02408   1.001E+00   0.000E+00  -1.062E-03
1056  8.27013066   0.762  -0.36270   3.76275   7.07890   1.98236   0.02406   1.001E+00   0.000E+00  -1.059E-03
1057  8.27072827   0.762  -0.36269   3.76275   7.07890   1.98237   0.02404   1.001E+00   0.000E+00  -1.056E-03
1058  8.27132507   0.762  -0.36268   3.76275   7.07890   1.98237   0.02402   1.001E+00   0.000E+00  -1.053E-03
1059  8.27192105   0.762  -0.36267   3.76275   7.07890   1.98237   0.02400   1.001E+00   0.000E+00  -1.049E-03
1060  8.27251621   0.762  -0.36266   3.76275   7.07890   1.98238   0.02399   1.001E+00   0.000E+00  -1.046E-03
1061  8.27311056   0.762  -0.36264   3.76275   7.07889   1.98238   0.02397   1.001E+00   0.000E+00  -1.043E-03
1062  8.27370409   0.762  -0.36263   3.76275   7.07889   1.98238   0.02395   1.001E+00   0.000E+00  -1.040E-03
1063  8.27429681   0.762  -0.36262   3.76275   7.07889   1.98238   0.02393   1.001E+00   0.000E+00  -1.036E-03
1064  8.27488873   0.762  -0.36261   3.76275   7.07889   1.98239   0.02391   1.001E+00   0.000E+00  -1.033E-03
1065  8.27547984   0.762  -0.36260   3.76275   7.07889   1.98239   0.02390   1.001E+00   0.000E+00  -1.030E-03
1066  8.27607015   0.762  -0.36259   3.76275   7.07889   1.98239   0.02388   1.001E+00   0.000E+00  -1.027E-03
1067  8.27665966   0.762  -0.36258   3.76275   7.07888   1.98240   0.02386   1.001E+00   0.000E+00  -1.023E-03
1068  8.27724836   0.762  -0.36257   3.76275   7.07888   1.98240   0.02384   1.001E+00   0.000E+00  -1.020E-03
1069  8.27783627   0.762  -0.36256   3.76275   7.07888   1.98240   0.02382   1.001E+00   0.000E+00  -1.017E-03
1070  8.27842339   0.762  -0.36255   3.76275   7.07888   1.98241   0.02381   1.001E+00   0.000E+00  -1.013E-03
1071  8.27900971   0.762  -0.36254   3.76275   7.07888   1.98241   0.02379   1.001E+00   0.000E+00  -1.010E-03
1072  8.27959524   0.762  -0.36253   3.76275   7.07887   1.98241   0.02377   1.001E+00   0.000E+00  -1.007E-03
1073  8.28017999   0.762  -0.36252   3.76275   7.07887   1.98242   0.02375   1.001E+00   0.000E+00  -1.004E-03
1074  8.28076394   0.762  -0.36251   3.76275   7.07887   1.98242   0.02374   1.001E+00   0.000E+00  -1.000E-03
1075  8.28134712   0.762  -0.36250   3.76275   7.07887   1.98242   0.02372   1.001E+00   0.000E+00  -9.972E-04
1076  8.28192951   0.762  -0.36249   3.76275   7.07887   1.98242   0.02370   1.001E+00   0.000E+00  -9.939E-04
1077  8.28251112   0.762  -0.36248   3.76275   7.07887   1.98243   0.02368   1.001E+00   0.000E+00  -9.907E-04
1078  8.28309195   0.762  -0.36247   3.76275   7.07886   1.98243   0.02366   1.001E+00   0.000E+00  -9.874E-04
1079  8.28367201   0.762  -0.36246   3.76275   7.07886   1.98243   0.02365   1.001E+00   0.000E+00  -9.841E-04
1080  8.28425129   0.762  -0.36245   3.76275   7.07886   1.98244   0.02363   1.001E+00   0.000E+00  -9.809E-04
1081  8.28482981   0.762  -0.36243   3.76275   7.07886   1.98244   0.02361   1.001E+00   0.000E+00  -9.776E-04
1082  8.28540755   0.762  -0.36242   3.76275   7.07886   1.98244   0.02359   1.001E+00   0.000E+00  -9.744E-04
1083  8.28598452   0.762  -0.36241   3.76275   7.07885   1.98245   0.02357   1.001E+00   0.000E+00  -9.711E-04
1084  8.28656073   0.762  -0.36240   3.76275   7.07885   1.98245   0.02356   1.001E+00   0.000E+00  -9.678E-04
1085  8.28713618   0.762  -0.36239   3.76275   7.07885   1.98245   0.02354   1.001E+00   0.000E+00  -9.646E-04
1086  8.28771086   0.762  -0.36238   3.76275   7.07885   1.98245   0.02352   1.001E+00   0.000E+00  -9.613E-04
1087  8.28828479   0.762  -0.36237   3.76275   7.07885   1.98246   0.02350   1.001E+00   0.000E+00  -9.580E-04
1088  8.28885796   0.762  -0.36236   3.76275   7.07885   1.98246   0.02348   1.001E+00   0.000E+00  -9.548E-04
1089  8.28943037   0.762  -0.36235   3.76275   7.07884   1.98246   0.02347   1.001E+00   0.000E+00  -9.515E-04
1090  8.29000203   0.762  -0.36234   3.76275   7.07884   1.98247   0.02345   1.001E+00   0.000E+00  -9.483E-04
1091  8.29057294   0.762  -0.36233   3.76275   7.07884   1.98247   0.02343   1.001E+00   0.000E+00  -9.450E-04
1092  8.49568631   0.756  -0.35834   3.76283   7.07886   1.98481   0.01880   1.000E+00   0.000E+00  -3.537E-04
1093  8.63443980   0.750  -0.35481   3.76300   7.07941   1.98781   0.01595   1.000E+00   0.000E+00  -1.096E-04
1094  8.73943254   0.744  -0.35152   3.76320   7.08019   1.99117   0.01357   1.000E+00   0.000E+00   7.183E-06
1095  8.82391989   0.738  -0.34860   3.76336   7.08115   1.99396   0.01279   1.000E+00   0.000E+00  -2.859E-05
1096  8.89461745   0.732  -0.34521   3.76365   7.08198   1.99838   0.01062   1.000E+00   0.000E+00   2.443E-04
1097  8.95540136   0.726  -0.34215   3.76390   7.08304   2.00234   0.00803   1.000E+00   0.000E+00   1.868E-04
1098  9.00871308   0.719  -0.33910   3.76415   7.08406   2.00643   0.00723   1.000E+00   0.000E+00   2.069E-04
1099  9.05619023   0.713  -0.33613   3.76438   7.08514   2.01037   0.00648   1.000E+00   0.000E+00   2.094E-04
1100  9.09898486   0.706  -0.33312   3.76464   7.08620   2.01459   0.00448   1.000E+00   0.000E+00   2.500E-04
1101  9.13793826   0.699  -0.33016   3.76488   7.08727   2.01881   0.00319   1.000E+00   0.000E+00   2.505E-04
1102  9.17368356   0.692  -0.32719   3.76514   7.08835   2.02311   0.00201   1.000E+00   0.000E+00   2.668E-04
1103  9.20670922   0.685  -0.32423   3.76539   7.08942   2.02752   0.00120   1.000E+00   0.000E+00   2.821E-04
1104  9.23739998   0.678  -0.32128   3.76564   7.09051   2.03196   0.00064   1.000E+00   0.000E+00   2.955E-04
1105  9.26606429   0.671  -0.31833   3.76589   7.09160   2.03646   0.00027   1.000E+00   0.000E+00   3.088E-04
1106  9.29295327   0.663  -0.31536   3.76615   7.09269   2.04100   0.00007   1.000E+00   0.000E+00   3.221E-04
1107  9.31827407   0.656  -0.31240   3.76640   7.09378   2.04559   0.00000   1.000E+00   0.000E+00   3.354E-04
1108  9.34219955   0.649  -0.30944   3.76666   7.09488   2.05012   0.00000   1.000E+00   0.000E+00   3.479E-04
1109  9.36487551   0.641  -0.30647   3.76692   7.09599   2.05468   0.00000   1.000E+00   0.000E+00   3.597E-04
1110  9.38642600   0.634  -0.30349   3.76717   7.09710   2.05928   0.00000   1.000E+00   0.000E+00   3.716E-04
1111  9.40695749   0.627  -0.30051   3.76743   7.09822   2.06390   0.00000   1.000E+00   0.000E+00   3.825E-04
1112  9.42656199   0.620  -0.29752   3.76769   7.09934   2.06856   0.00000   1.000E+00   0.000E+00   3.952E-04
1113  9.44531962   0.612  -0.29452   3.76795   7.10047   2.07325   0.00000   1.000E+00   0.000E+00   4.071E-04
1114  9.46330052   0.605  -0.29151   3.76821   7.10160   2.07796   0.00000   1.000E+00   0.000E+00   4.176E-04
1115  9.48056647   0.597  -0.28849   3.76847   7.10275   2.08300   0.00000   1.000E+00   0.000E+00   4.276E-04
1116  9.49717215   0.590  -0.28546   3.76872   7.10398   2.08864   0.00000   1.000E+00   0.000E+00   4.323E-04
1117  9.51316622   0.583  -0.28242   3.76899   7.10526   2.09430   0.00000   1.000E+00   0.000E+00   4.400E-04
1118  9.52859212   0.575  -0.27934   3.76924   7.10656   2.09999   0.00000   1.000E+00   0.000E+00   4.509E-04
1119  9.54348884   0.568  -0.27624   3.76950   7.10789   2.10569   0.00000   1.000E+00   0.000E+00   4.604E-04
1120  9.55789149   0.560  -0.27312   3.76975   7.10925   2.11142   0.00000   1.000E+00   0.000E+00   4.707E-04
1121  9.57183179   0.553  -0.26997   3.77000   7.11061   2.11716   0.00000   9.995E-01   0.000E+00   4.812E-04
1122  9.58533851   0.545  -0.26680   3.77026   7.11200   2.12293   0.00000   9.990E-01   0.000E+00   4.917E-04
1123  9.59843781   0.538  -0.26359   3.77052   7.11340   2.12872   0.00000   9.990E-01   0.000E+00   5.036E-04
1124  9.61115354   0.530  -0.26036   3.77078   7.11482   2.13453   0.00000   9.990E-01   0.000E+00   5.145E-04
1125  9.62350753   0.523  -0.25711   3.77103   7.11624   2.14036   0.00000   9.990E-01   0.000E+00   5.265E-04
1126  9.63551980   0.515  -0.25383   3.77129   7.11768   2.14623   0.00000   9.990E-01   0.000E+00   5.379E-04
1127  9.64720874   0.507  -0.25052   3.77154   7.11912   2.15213   0.00000   9.990E-01   0.000E+00   5.507E-04
1128  9.65859130   0.500  -0.24717   3.77180   7.12058   2.15805   0.00000   9.990E-01   0.000E+00   5.631E-04
1129  9.66968314   0.492  -0.24381   3.77206   7.12205   2.16400   0.00000   9.990E-01   0.000E+00   5.748E-04
1130  9.68049873   0.485  -0.24040   3.77232   7.12353   2.16999   0.00000   9.990E-01   0.000E+00   5.876E-04
1131  9.69105151   0.477  -0.23697   3.77258   7.12502   2.17601   0.00000   9.990E-01   0.000E+00   6.015E-04
1132  9.70135394   0.469  -0.23352   3.77284   7.12652   2.18206   0.00000   9.990E-01   0.000E+00   6.146E-04
1133  9.71141762   0.462  -0.23002   3.77310   7.12803   2.18812   0.00000   9.990E-01   0.000E+00   6.272E-04
1134  9.72125338   0.454  -0.22651   3.77336   7.12954   2.19424   0.00000   9.990E-01   0.000E+00   6.410E-04
1135  9.73087130   0.446  -0.22296   3.77363   7.13105   2.20037   0.00000   9.990E-01   0.000E+00   6.534E-04
1136  9.74028083   0.439  -0.21938   3.77389   7.13259   2.20654   0.00000   9.990E-01   0.000E+00   6.668E-04
1137  9.74949081   0.431  -0.21578   3.77416   7.13413   2.21274   0.00000   9.990E-01   0.000E+00   6.804E-04
1138  9.75850952   0.423  -0.21213   3.77443   7.13568   2.21897   0.00000   9.990E-01   0.000E+00   6.928E-04
1139  9.76734475   0.416  -0.20846   3.77470   7.13724   2.22525   0.00000   9.990E-01   0.000E+00   7.090E-04
1140  9.77600382   0.408  -0.20475   3.77497   7.13880   2.23157   0.00000   9.990E-01   0.000E+00   7.218E-04
1141  9.78449360   0.400  -0.20101   3.77524   7.14038   2.23798   0.00000   9.990E-01   0.000E+00   7.363E-04
1142  9.79282061   0.393  -0.19723   3.77551   7.14201   2.24555   0.00000   9.990E-01   0.000E+00   7.509E-04
1143  9.80099095   0.385  -0.19343   3.77578   7.14370   2.25325   0.00000   9.990E-01   0.000E+00   7.631E-04
1144  9.80901042   0.377  -0.18959   3.77605   7.14543   2.26101   0.00000   9.990E-01   0.000E+00   7.782E-04
1145  9.81688449   0.370  -0.18571   3.77632   7.14721   2.26881   0.00000   9.990E-01   0.000E+00   7.916E-04
1146  9.82461833   0.362  -0.18180   3.77660   7.14902   2.27665   0.00000   9.990E-01   0.000E+00   8.062E-04
1147  9.83221686   0.354  -0.17784   3.77687   7.15088   2.28453   0.00000   9.990E-01   0.000E+00   8.206E-04
1148  9.83968472   0.346  -0.17384   3.77714   7.15276   2.29247   0.00000   9.990E-01   0.000E+00   8.368E-04
1149  9.84702634   0.338  -0.16980   3.77741   7.15467   2.30046   0.00000   9.990E-01   0.000E+00   8.532E-04
1150  9.85424591   0.330  -0.16571   3.77768   7.15662   2.30848   0.00000   9.990E-01   0.000E+00   8.705E-04
1151  9.86134743   0.323  -0.16158   3.77795   7.15858   2.31654   0.00000   9.990E-01   0.000E+00   8.878E-04
1152  9.86833468   0.315  -0.15740   3.77822   7.16057   2.32466   0.00000   9.990E-01   0.000E+00   9.027E-04
1153  9.87521130   0.307  -0.15319   3.77849   7.16259   2.33282   0.00000   9.990E-01   0.000E+00   9.201E-04
1154  9.88198073   0.299  -0.14892   3.77877   7.16462   2.34104   0.00000   9.990E-01   0.000E+00   9.392E-04
1155  9.88864626   0.291  -0.14460   3.77904   7.16668   2.34932   0.00000   9.990E-01   0.000E+00   9.533E-04
1156  9.89521104   0.283  -0.14023   3.77931   7.16875   2.35764   0.00000   9.990E-01   0.000E+00   9.724E-04
1157  9.90167805   0.276  -0.13581   3.77957   7.17084   2.36604   0.00000   9.990E-01   0.000E+00   9.938E-04
1158  9.90805018   0.268  -0.13134   3.77985   7.17295   2.37450   0.00000   9.990E-01   0.000E+00   1.010E-03
1159  9.91433017   0.260  -0.12681   3.78012   7.17507   2.38304   0.00000   9.990E-01   0.000E+00   1.030E-03
1160  9.92052063   0.253  -0.12223   3.78039   7.17720   2.39162   0.00000   9.990E-01   0.000E+00   1.050E-03
1161  9.92662410   0.245  -0.11758   3.78067   7.17934   2.40028   0.00000   9.990E-01   0.000E+00   1.063E-03
1162  9.93264298   0.238  -0.11288   3.78094   7.18149   2.40901   0.00000   9.990E-01   0.000E+00   1.087E-03
1163  9.93857958   0.230  -0.10812   3.78121   7.18366   2.41783   0.00000   9.990E-01   0.000E+00   1.110E-03
1164  9.94443612   0.223  -0.10329   3.78150   7.18583   2.42673   0.00000   9.990E-01   0.000E+00   1.129E-03
1165  9.95021474   0.216  -0.09839   3.78177   7.18801   2.43573   0.00000   9.990E-01   0.000E+00   1.149E-03
1166  9.95591747   0.209  -0.09342   3.78206   7.19019   2.44484   0.00000   9.990E-01   0.000E+00   1.173E-03
1167  9.96154630   0.202  -0.08838   3.78233   7.19239   2.45405   0.00000   9.990E-01   0.000E+00   1.198E-03
1168  9.96710310   0.195  -0.08326   3.78262   7.19459   2.46488   0.00000   9.990E-01   0.000E+00   1.224E-03
1169  9.97258970   0.188  -0.07808   3.78290   7.19688   2.47624   0.00000   9.990E-01   0.000E+00   1.240E-03
1170  9.97800785   0.181  -0.07280   3.78318   7.19925   2.48774   0.00000   9.990E-01   0.000E+00   1.266E-03
1171  9.98335923   0.174  -0.06745   3.78347   7.20166   2.49935   0.00000   9.990E-01   0.000E+00   1.293E-03
1172  9.98864548   0.168  -0.06200   3.78375   7.20409   2.51111   0.00000   9.990E-01   0.000E+00   1.320E-03
1173  9.99386815   0.162  -0.05645   3.78403   7.20657   2.52302   0.00000   9.990E-01   0.000E+00   1.347E-03
1174  9.99902877   0.155  -0.05081   3.78431   7.20910   2.53510   0.00000   9.980E-01   0.000E+00   1.375E-03
1175 10.00412878   0.149  -0.04505   3.78460   7.21165   2.54738   0.00000   9.980E-01   0.000E+00   1.414E-03
1176 10.00916960   0.143  -0.03918   3.78488   7.21423   2.55981   0.00000   9.980E-01   0.000E+00   1.443E-03
1177 10.01415258   0.137  -0.03318   3.78517   7.21682   2.57246   0.00000   9.980E-01   0.000E+00   1.468E-03
1178 10.01907903   0.131  -0.02706   3.78545   7.21945   2.58534   0.00000   9.980E-01   0.000E+00   1.516E-03
1179 10.02395023   0.126  -0.02081   3.78574   7.22209   2.59846   0.00000   9.980E-01   0.000E+00   1.548E-03
1180 10.02876739   0.120  -0.01442   3.78602   7.22476   2.61181   0.00000   9.980E-01   0.000E+00   1.586E-03
1181 10.03353171   0.115  -0.00788   3.78631   7.22746   2.62542   0.00000   9.980E-01   0.000E+00   1.637E-03
1182 10.03824433   0.110  -0.00120   3.78660   7.23020   2.63931   0.00000   9.980E-01   0.000E+00   1.672E-03
1183 10.04290636   0.105   0.00564   3.78689   7.23297   2.65350   0.00000   9.980E-01   0.000E+00   1.710E-03
1184 10.04751888   0.100   0.01265   3.78719   7.23579   2.66798   0.00000   9.980E-01   2.784E-05   1.760E-03
1185 10.05208292   0.095   0.01982   3.78748   7.23866   2.68280   0.00000   9.980E-01   1.000E-03   1.808E-03
1186 10.05659949   0.091   0.02718   3.78777   7.24159   2.69797   0.00000   9.978E-01   1.000E-03   1.842E-03
1187 10.06106958   0.086   0.03472   3.78806   7.24458   2.71344   0.00000   9.970E-01   1.000E-03   1.900E-03
1188 10.06549413   0.082   0.04246   3.78835   7.24765   2.72925   0.00000   9.970E-01   1.000E-03   1.955E-03
1189 10.06987405   0.078   0.05041   3.78863   7.25078   2.74547   0.00000   9.970E-01   1.000E-03   1.990E-03
1190 10.07421024   0.074   0.05857   3.78893   7.25402   2.76205   0.00000   9.970E-01   1.000E-03   2.048E-03
1191 10.07850358   0.070   0.06696   3.78921   7.25734   2.77911   0.00000   9.970E-01   1.000E-03   2.110E-03
1192 10.08000173   0.069   0.06996   3.78930   7.25854   2.78521   0.00000   9.960E-01   1.000E-03   2.115E-03
1193 10.08149473   0.067   0.07299   3.78940   7.25974   2.79137   0.00000   9.960E-01   1.993E-03   2.130E-03
1194 10.08298262   0.066   0.07604   3.78950   7.26097   2.79756   0.00000   9.960E-01   2.000E-03   2.145E-03
1195 10.08446542   0.065   0.07912   3.78959   7.26221   2.80376   0.00000   9.960E-01   2.000E-03   2.151E-03
1196 10.08594318   0.063   0.08224   3.78969   7.26345   2.81010   0.00000   9.960E-01   2.000E-03   2.182E-03
1197 10.08741593   0.062   0.08539   3.78978   7.26473   2.81648   0.00000   9.960E-01   2.000E-03   2.193E-03
1198 10.08888370   0.061   0.08857   3.78987   7.26600   2.82295   0.00000   9.960E-01   2.000E-03   2.217E-03
1199 10.09034653   0.060   0.09177   3.78997   7.26731   2.82941   0.00000   9.960E-01   2.000E-03   2.210E-03
1200 10.09180444   0.058   0.09502   3.79006   7.26863   2.83600   0.00000   9.951E-01   2.000E-03   2.238E-03
1201 10.09325748   0.057   0.09830   3.79015   7.26998   2.84263   0.00000   9.950E-01   2.000E-03   2.256E-03
1202 10.09470567   0.056   0.10161   3.79023   7.27132   2.84933   0.00000   9.950E-01   3.000E-03   2.268E-03
1203 10.09614905   0.055   0.10495   3.79032   7.27271   2.85605   0.00000   9.950E-01   3.000E-03   2.260E-03
1204 10.09758765   0.053   0.10833   3.79041   7.27413   2.86289   0.00000   9.950E-01   3.000E-03   2.296E-03
1205 10.09902150   0.052   0.11174   3.79050   7.27554   2.86980   0.00000   9.947E-01   3.000E-03   2.290E-03
1206 10.10045063   0.051   0.11519   3.79059   7.27700   2.87675   0.00000   9.940E-01   3.000E-03   2.309E-03
1207 10.10187508   0.050   0.11868   3.79068   7.27849   2.88377   0.00000   9.940E-01   3.700E-03   2.340E-03
1208 10.10329486   0.049   0.12219   3.79075   7.27998   2.89086   0.00000   9.940E-01   4.000E-03   2.326E-03
1209 10.10471002   0.048   0.12576   3.79083   7.28152   2.89800   0.00000   9.938E-01   4.000E-03   2.346E-03
1210 10.10612059   0.047   0.12936   3.79092   7.28309   2.90524   0.00000   9.930E-01   4.006E-03   2.380E-03
1211 10.10752659   0.045   0.13298   3.79099   7.28467   2.91253   0.00000   9.930E-01   5.000E-03   2.364E-03
1212 10.10892805   0.044   0.13666   3.79107   7.28631   2.91993   0.00000   9.924E-01   5.000E-03   2.389E-03
1213 10.11032500   0.043   0.14037   3.79114   7.28796   2.92739   0.00000   9.920E-01   5.486E-03   2.400E-03
1214 10.11171747   0.042   0.14413   3.79121   7.28966   2.93487   0.00000   9.920E-01   6.000E-03   2.407E-03
1215 10.11310549   0.041   0.14792   3.79129   7.29140   2.94246   0.00000   9.910E-01   6.000E-03   2.430E-03
1216 10.11448910   0.040   0.15176   3.79135   7.29317   2.95010   0.00000   9.910E-01   7.000E-03   2.430E-03
1217 10.11586830   0.039   0.15565   3.79142   7.29499   2.95783   0.00000   9.900E-01   7.075E-03   2.461E-03
1218 10.11724314   0.038   0.15957   3.79148   7.29684   2.96570   0.00000   9.900E-01   8.000E-03   2.479E-03
1219 10.11861364   0.036   0.16354   3.79154   7.29876   2.97349   0.00000   9.890E-01   8.000E-03   2.470E-03
1220 10.11997984   0.035   0.16756   3.79160   7.30073   2.98141   0.00000   9.880E-01   9.000E-03   2.510E-03
1221 10.12134174   0.034   0.17160   3.79165   7.30273   2.98933   0.00000   9.880E-01   1.000E-02   2.500E-03
1222 10.12269939   0.033   0.17570   3.79170   7.30480   2.99731   0.00000   9.870E-01   1.100E-02   2.510E-03
1223 10.12405281   0.032   0.17984   3.79174   7.30690   3.00539   0.00000   9.860E-01   1.111E-02   2.520E-03
1224 10.12540202   0.031   0.18403   3.79179   7.30909   3.01340   0.00000   9.850E-01   1.219E-02   2.536E-03
1225 10.12674706   0.030   0.18826   3.79183   7.31133   3.02151   0.00000   9.840E-01   1.330E-02   2.554E-03
1226 10.12808794   0.029   0.19253   3.79186   7.31363   3.02963   0.00000   9.826E-01   1.442E-02   2.548E-03
1227 10.12942470   0.028   0.19686   3.79190   7.31601   3.03782   0.00000   9.814E-01   1.600E-02   2.596E-03
1228 10.13075735   0.026   0.20121   3.79193   7.31843   3.04606   0.00000   9.803E-01   1.700E-02   2.568E-03
1229 10.13208592   0.025   0.20562   3.79195   7.32096   3.05424   0.00000   9.790E-01   1.893E-02   2.597E-03
1230 10.13341045   0.024   0.21006   3.79197   7.32354   3.06252   0.00000   9.769E-01   2.015E-02   2.607E-03
1231 10.13473095   0.023   0.21454   3.79199   7.32621   3.07073   0.00000   9.756E-01   2.238E-02   2.594E-03
1232 10.13604744   0.022   0.21907   3.79200   7.32897   3.07903   0.00000   9.734E-01   2.400E-02   2.616E-03
1233 10.13735996   0.020   0.22364   3.79200   7.33180   3.08731   0.00000   9.711E-01   2.591E-02   2.619E-03
1234 10.13866852   0.019   0.22825   3.79201   7.33471   3.09556   0.00000   9.688E-01   2.820E-02   2.624E-03
1235 10.13997315   0.018   0.23290   3.79200   7.33768   3.10388   0.00000   9.665E-01   3.104E-02   2.625E-03
1236 10.14127387   0.016   0.23760   3.79201   7.34072   3.11223   0.00000   9.641E-01   3.386E-02   2.639E-03
1237 10.14257071   0.015   0.24233   3.79200   7.34377   3.12069   0.00000   9.608E-01   3.643E-02   2.630E-03
1238 10.14386368   0.014   0.24711   3.79200   7.34684   3.12920   0.00000   9.578E-01   3.960E-02   2.642E-03
1239 10.14515282   0.012   0.25195   3.79199   7.34990   3.13789   0.00000   9.540E-01   4.300E-02   2.670E-03
1240 10.14643815   0.011   0.25683   3.79197   7.35283   3.14688   0.00000   9.511E-01   4.644E-02   2.664E-03
1241 10.14771968   0.010   0.26182   3.79195   7.35577   3.15607   0.00000   9.470E-01   5.000E-02   2.890E-03
1242 10.14796763   0.009   0.26280   3.79194   7.35633   3.15790   0.00000   9.459E-01   5.108E-02   2.955E-03
1243 10.14821544   0.009   0.26377   3.79194   7.35689   3.15975   0.00000   9.449E-01   5.208E-02   3.017E-03
1244 10.14846311   0.009   0.26476   3.79193   7.35743   3.16165   0.00000   9.444E-01   5.265E-02   3.068E-03
1245 10.14871064   0.008   0.26575   3.79193   7.35796   3.16356   0.00000   9.438E-01   5.322E-02   3.124E-03
1246 10.14895803   0.008   0.26674   3.79193   7.35849   3.16546   0.00000   9.432E-01   5.381E-02   3.189E-03
1247 10.14920527   0.008   0.26774   3.79193   7.35900   3.16739   0.00000   9.422E-01   5.482E-02   3.255E-03
1248 10.14945238   0.008   0.26873   3.79192   7.35952   3.16932   0.00000   9.410E-01   5.602E-02   3.322E-03
1249 10.14969934   0.007   0.26973   3.79192   7.36001   3.17131   0.00000   9.403E-01   5.665E-02   3.385E-03
1250 10.14994617   0.007   0.27074   3.79192   7.36050   3.17331   0.00000   9.394E-01   5.730E-02   3.450E-03
1251 10.15019285   0.007   0.27174   3.79191   7.36098   3.17533   0.00000   9.381E-01   5.795E-02   3.515E-03
1252 10.15043940   0.007   0.27275   3.79190   7.36145   3.17740   0.00000   9.374E-01   5.863E-02   3.583E-03
1253 10.15068580   0.007   0.27376   3.79190   7.36190   3.17948   0.00000   9.367E-01   5.932E-02   3.649E-03
1254 10.15093207   0.006   0.27478   3.79189   7.36234   3.18160   0.00000   9.360E-01   6.002E-02   3.712E-03
1255 10.15117819   0.006   0.27581   3.79188   7.36275   3.18378   0.00000   9.353E-01   6.074E-02   3.762E-03
1256 10.15142418   0.006   0.27684   3.79186   7.36316   3.18597   0.00000   9.345E-01   6.196E-02   3.818E-03
1257 10.15167002   0.006   0.27788   3.79185   7.36356   3.18818   0.00000   9.335E-01   6.323E-02   3.883E-03
1258 10.15191573   0.005   0.27892   3.79184   7.36396   3.19040   0.00000   9.320E-01   6.399E-02   3.959E-03
1259 10.15216130   0.005   0.27996   3.79182   7.36433   3.19267   0.00000   9.312E-01   6.477E-02   4.030E-03
1260 10.15240673   0.005   0.28100   3.79181   7.36470   3.19496   0.00000   9.304E-01   6.557E-02   4.107E-03
1261 10.15265202   0.005   0.28205   3.79180   7.36507   3.19728   0.00000   9.296E-01   6.638E-02   4.180E-03
1262 10.15289717   0.005   0.28311   3.79179   7.36542   3.19964   0.00000   9.288E-01   6.720E-02   4.248E-03
1263 10.15314219   0.004   0.28416   3.79178   7.36576   3.20201   0.00000   9.280E-01   6.804E-02   4.323E-03
1264 10.15338706   0.004   0.28523   3.79176   7.36609   3.20443   0.00000   9.271E-01   6.890E-02   4.383E-03
1265 10.15363180   0.004   0.28629   3.79174   7.36639   3.20689   0.00000   9.262E-01   6.977E-02   4.421E-03
1266 10.15387640   0.004   0.28735   3.79173   7.36669   3.20936   0.00000   9.253E-01   7.000E-02   4.470E-03
1267 10.15412086   0.004   0.28843   3.79171   7.36699   3.21185   0.00000   9.244E-01   7.056E-02   4.524E-03
1268 10.15436519   0.004   0.28951   3.79169   7.36727   3.21437   0.00000   9.235E-01   7.148E-02   4.584E-03
1269 10.15460938   0.003   0.29060   3.79167   7.36755   3.21691   0.00000   9.226E-01   7.242E-02   4.653E-03
1270 10.15485343   0.003   0.29170   3.79165   7.36783   3.21947   0.00000   9.216E-01   7.336E-02   4.729E-03
1271 10.15509734   0.003   0.29279   3.79162   7.36810   3.22207   0.00000   9.207E-01   7.433E-02   4.806E-03
1272 10.15534112   0.003   0.29390   3.79160   7.36835   3.22469   0.00000   9.197E-01   7.531E-02   4.882E-03
1273 10.15558476   0.003   0.29500   3.79158   7.36860   3.22734   0.00000   9.187E-01   7.630E-02   4.951E-03
1274 10.15582826   0.003   0.29611   3.79156   7.36885   3.23002   0.00000   9.180E-01   7.700E-02   5.022E-03
1275 10.15607163   0.003   0.29723   3.79154   7.36908   3.23275   0.00000   9.177E-01   7.734E-02   5.080E-03
1276 10.15631486   0.002   0.29834   3.79151   7.36929   3.23553   0.00000   9.166E-01   7.839E-02   5.112E-03
1277 10.15655795   0.002   0.29947   3.79149   7.36950   3.23830   0.00000   9.156E-01   7.945E-02   5.161E-03
1278 10.15680091   0.002   0.30060   3.79146   7.36972   3.24109   0.00000   9.145E-01   8.052E-02   5.231E-03
1279 10.15704373   0.002   0.30174   3.79144   7.36994   3.24392   0.00000   9.134E-01   8.100E-02   5.297E-03
1280 10.15728642   0.002   0.30287   3.79141   7.37014   3.24676   0.00000   9.123E-01   8.172E-02   5.363E-03
1281 10.15752897   0.002   0.30402   3.79138   7.37034   3.24962   0.00000   9.120E-01   8.284E-02   5.439E-03
1282 10.15777139   0.002   0.30517   3.79135   7.37054   3.25249   0.00000   9.110E-01   8.398E-02   5.509E-03
1283 10.15801367   0.002   0.30632   3.79132   7.37073   3.25539   0.00000   9.099E-01   8.500E-02   5.580E-03
1284 10.15825581   0.002   0.30749   3.79129   7.37092   3.25832   0.00000   9.087E-01   8.531E-02   5.659E-03
1285 10.15849782   0.001   0.30865   3.79126   7.37109   3.26129   0.00000   9.075E-01   8.650E-02   5.715E-03
1286 10.15873970   0.001   0.30982   3.79122   7.37126   3.26430   0.00000   9.070E-01   8.771E-02   5.744E-03
1287 10.15898144   0.001   0.31099   3.79119   7.37143   3.26732   0.00000   9.061E-01   8.800E-02   5.815E-03
1288 10.15922305   0.001   0.31217   3.79115   7.37159   3.27036   0.00000   9.048E-01   8.917E-02   5.882E-03
1289 10.15946452   0.001   0.31336   3.79112   7.37177   3.27341   0.00000   9.036E-01   9.043E-02   5.966E-03
1290 10.15970586   0.001   0.31455   3.79109   7.37193   3.27649   0.00000   9.030E-01   9.100E-02   6.028E-03
1291 10.15994706   0.001   0.31575   3.79105   7.37210   3.27960   0.00000   9.020E-01   9.200E-02   6.100E-03
1292 10.16051540   0.001   0.31855   3.79095   7.37245   3.28707   0.00000   9.000E-01   9.397E-02   5.707E-03
1293 10.16108299   0.001   0.32137   3.79085   7.37273   3.29476   0.00000   8.984E-01   9.660E-02   5.032E-03
1294 10.16164984   0.001   0.32422   3.79074   7.37312   3.30302   0.00000   8.971E-01   9.893E-02   4.449E-03
1295 10.16221595   0.001   0.32712   3.79062   7.37337   3.31094   0.00000   8.950E-01   1.010E-01   3.972E-03
1296 10.16278133   0.000   0.33002   3.79048   7.37366   3.31914   0.00000   8.932E-01   1.028E-01   3.523E-03
1297 10.16334597   0.000   0.33295   3.79033   7.37388   3.32743   0.00000   8.916E-01   1.054E-01   3.090E-03
1298 10.16390988   0.000   0.33594   3.79018   7.37413   3.33573   0.00000   8.893E-01   1.077E-01   2.988E-03
1299 10.16447306   0.000   0.33897   3.79005   7.37451   3.34394   0.00000   8.867E-01   1.103E-01   3.070E-03
1300 10.16503550   0.000   0.34202   3.78990   7.37490   3.35227   0.00000   8.843E-01   1.127E-01   3.070E-03
1301 10.16559722   0.000   0.34510   3.78976   7.37530   3.36078   0.00000   8.812E-01   1.158E-01   3.094E-03
1302 10.16615822   0.000   0.34822   3.78960   7.37571   3.36950   0.00000   8.781E-01   1.189E-01   3.100E-03
1303 10.16671849   0.000   0.35137   3.78944   7.37622   3.37852   0.00000   8.750E-01   1.220E-01   3.120E-03
1304 10.16727804   0.000   0.35455   3.78926   7.37672   3.38772   0.00000   8.719E-01   1.241E-01   3.102E-03
1305 10.16783687   0.000   0.35780   3.78908   7.37714   3.39702   0.00000   8.693E-01   1.274E-01   3.144E-03
1306 10.16839498   0.000   0.36109   3.78888   7.37762   3.40654   0.00000   8.661E-01   1.306E-01   3.163E-03
1307 10.16895237   0.000   0.36441   3.78868   7.37816   3.41632   0.00000   8.621E-01   1.339E-01   3.180E-03
1308 10.16950905   0.000   0.36779   3.78847   7.37867   3.42629   0.00000   8.587E-01   1.379E-01   3.216E-03
1309 10.17006502   0.000   0.37121   3.78823   7.37919   3.43648   0.00000   8.553E-01   1.417E-01   3.223E-03
1310 10.17062028   0.000   0.37470   3.78798   7.37969   3.44692   0.00000   8.519E-01   1.451E-01   3.231E-03
1311 10.17117482   0.000   0.37821   3.78773   7.38036   3.45766   0.00000   8.484E-01   1.486E-01   3.248E-03
1312 10.17172866   0.000   0.38181   3.78745   7.38093   3.46869   0.00000   8.438E-01   1.522E-01   3.254E-03
1313 10.17228180   0.000   0.38544   3.78717   7.38154   3.47990   0.00000   8.402E-01   1.568E-01   3.270E-03
1314 10.17283423   0.000   0.38914   3.78686   7.38214   3.49143   0.00000   8.364E-01   1.606E-01   3.274E-03
1315 10.17338596   0.000   0.39288   3.78655   7.38280   3.50320   0.00000   8.318E-01   1.652E-01   3.300E-03
1316 10.17393699   0.000   0.39669   3.78622   7.38351   3.51522   0.00000   8.271E-01   1.699E-01   3.271E-03
1317 10.17448732   0.000   0.40058   3.78585   7.38424   3.52754   0.00000   8.223E-01   1.747E-01   3.267E-03
1318 10.17503696   0.000   0.40453   3.78546   7.38500   3.54027   0.00000   8.175E-01   1.787E-01   3.235E-03
1319 10.17558590   0.000   0.40852   3.78507   7.38596   3.55330   0.00000   8.125E-01   1.845E-01   3.207E-03
1320 10.17613414   0.000   0.41261   3.78467   7.38681   3.56672   0.00000   8.073E-01   1.896E-01   3.279E-03
1321 10.17668170   0.000   0.41677   3.78422   7.38775   3.58052   0.00000   8.013E-01   1.948E-01   3.279E-03
1322 10.17722856   0.000   0.42101   3.78375   7.38869   3.59484   0.00000   7.960E-01   2.010E-01   3.270E-03
1323 10.17777474   0.000   0.42535   3.78325   7.38968   3.60948   0.00000   7.895E-01   2.075E-01   3.318E-03
1324 10.17832024   0.000   0.42976   3.78274   7.39077   3.62455   0.00000   7.830E-01   2.140E-01   3.327E-03
1325 10.17886504   0.000   0.43427   3.78219   7.39189   3.64011   0.00000   7.763E-01   2.207E-01   3.348E-03
1326 10.17940917   0.000   0.43887   3.78159   7.39305   3.65619   0.00000   7.694E-01   2.276E-01   3.320E-03
1327 10.17995261   0.000   0.44356   3.78097   7.39431   3.67276   0.00000   7.622E-01   2.346E-01   3.290E-03
1328 10.18049538   0.000   0.44837   3.78032   7.39566   3.68983   0.00000   7.543E-01   2.427E-01   3.324E-03
1329 10.18103747   0.000   0.45331   3.77960   7.39708   3.70760   0.00000   7.460E-01   2.510E-01   3.380E-03
1330 10.18157888   0.000   0.45837   3.77884   7.39859   3.72600   0.00000   7.369E-01   2.601E-01   3.400E-03
1331 10.18211962   0.000   0.46354   3.77803   7.40018   3.74493   0.00000   7.277E-01   2.692E-01   3.423E-03
1332 10.18265968   0.000   0.46887   3.77715   7.40185   3.76455   0.00000   7.179E-01   2.788E-01   3.467E-03
1333 10.18319908   0.000   0.47432   3.77621   7.40362   3.78484   0.00000   7.074E-01   2.896E-01   3.488E-03
1334 10.18373780   0.000   0.47989   3.77520   7.40552   3.80593   0.00000   6.963E-01   3.007E-01   3.428E-03
1335 10.18427586   0.000   0.48565   3.77411   7.40753   3.82787   0.00000   6.849E-01   3.121E-01   3.460E-03
1336 10.18481326   0.000   0.49158   3.77296   7.40969   3.85061   0.00000   6.722E-01   3.248E-01   3.470E-03
1337 10.18534998   0.000   0.49765   3.77173   7.41201   3.87427   0.00000   6.591E-01   3.378E-01   3.470E-03
1338 10.18588605   0.000   0.50390   3.77043   7.41450   3.89888   0.00000   6.447E-01   3.523E-01   3.423E-03
1339 10.18642146   0.000   0.51036   3.76906   7.41721   3.92445   0.00000   6.297E-01   3.673E-01   3.467E-03
1340 10.18695620   0.000   0.51699   3.76759   7.42010   3.95106   0.00000   6.133E-01   3.837E-01   3.425E-03
1341 10.18749029   1.000   0.52424   3.76589   7.42449   3.98151   0.00000   5.980E-01   3.980E-01   3.560E-03
