 # M = 0.30 Mo, Y = 0.2300, Z = 2.00000E-04, alpha = 1.20, X_D = 4.0E-05
 # Solar Mixture: Asplund et al. (2005)         
 # ------------------------------------------------------------------------------------------------------------
 # NMD   LOG AGE    Xc      LOG L     LOG TE    LOG Tc   LOG RHOc    M-CC       L-PP       L-CNO       L-GRA
 #        (yr)              (Lo)        (K)       (K)   (gr/cm^3)    (Mo)        (L)         (L)         (L)
 # ------------------------------------------------------------------------------------------------------------
   1  5.08114104   0.770   0.19032   3.63700   6.01851  -0.58777   0.00000   9.430E-01   0.000E+00   5.720E-02
   2  5.24413109   0.770   0.18130   3.63687   6.02259  -0.57550   0.00000   9.365E-01   0.000E+00   6.307E-02
   3  5.36236797   0.770   0.17323   3.63676   6.02624  -0.56453   0.00000   9.395E-01   0.000E+00   6.028E-02
   4  5.45520666   0.770   0.16568   3.63665   6.02965  -0.55427   0.00000   9.430E-01   0.000E+00   5.681E-02
   5  5.53165233   0.770   0.15908   3.63656   6.03263  -0.54531   0.00000   9.464E-01   0.000E+00   5.338E-02
   6  5.59663454   0.770   0.15248   3.63647   6.03561  -0.53636   0.00000   9.497E-01   0.000E+00   4.994E-02
   7  5.65314719   0.770   0.14644   3.63638   6.03833  -0.52819   0.00000   9.509E-01   0.000E+00   4.886E-02
   8  5.70314566   0.770   0.14047   3.63628   6.04102  -0.52010   0.00000   9.519E-01   0.000E+00   4.803E-02
   9  5.74797769   0.770   0.13449   3.63619   6.04371  -0.51202   0.00000   9.529E-01   0.000E+00   4.721E-02
  10  5.78861171   0.770   0.12853   3.63610   6.04639  -0.50397   0.00000   9.522E-01   0.000E+00   4.775E-02
  11  5.82576704   0.770   0.12258   3.63601   6.04906  -0.49592   0.00000   9.513E-01   0.000E+00   4.850E-02
  12  5.85999261   0.770   0.11663   3.63591   6.05173  -0.48788   0.00000   9.504E-01   0.000E+00   4.924E-02
  13  5.89171688   0.770   0.11044   3.63581   6.05450  -0.47953   0.00000   9.489E-01   0.000E+00   5.071E-02
  14  5.92128068   0.770   0.10405   3.63571   6.05737  -0.47091   0.00000   9.468E-01   0.000E+00   5.282E-02
  15  5.94895961   0.770   0.09765   3.63560   6.06023  -0.46229   0.00000   9.447E-01   0.000E+00   5.493E-02
  16  5.97497967   0.770   0.09110   3.63549   6.06317  -0.45347   0.00000   9.424E-01   0.000E+00   5.736E-02
  17  5.99952852   0.770   0.08380   3.63536   6.06643  -0.44365   0.00000   9.385E-01   0.000E+00   6.139E-02
  18  6.02276364   0.770   0.07649   3.63523   6.06969  -0.43384   0.00000   9.347E-01   0.000E+00   6.542E-02
  19  6.04481855   0.770   0.06913   3.63510   6.07297  -0.42395   0.00000   9.307E-01   0.000E+00   6.958E-02
  20  6.06580735   0.770   0.06041   3.63495   6.07685  -0.41227   0.00000   9.234E-01   0.000E+00   7.673E-02
  21  6.08582839   0.770   0.05169   3.63479   6.08073  -0.40058   0.00000   9.161E-01   0.000E+00   8.389E-02
  22  6.10496699   0.770   0.04236   3.63462   6.08488  -0.38810   0.00000   9.072E-01   0.000E+00   9.271E-02
  23  6.12329766   0.770   0.03163   3.63441   6.08964  -0.37374   0.00000   8.946E-01   0.000E+00   1.054E-01
  24  6.14088586   0.770   0.02088   3.63421   6.09441  -0.35937   0.00000   8.818E-01   0.000E+00   1.182E-01
  25  6.15778941   0.770   0.00748   3.63394   6.10035  -0.34150   0.00000   8.598E-01   0.000E+00   1.402E-01
  26  6.17405961   0.770  -0.00640   3.63366   6.10649  -0.32301   0.00000   8.355E-01   0.000E+00   1.645E-01
  27  6.18974222   0.770  -0.02312   3.63332   6.11387  -0.30078   0.00000   7.973E-01   0.000E+00   2.027E-01
  28  6.20487821   0.770  -0.04233   3.63291   6.12234  -0.27527   0.00000   7.448E-01   0.000E+00   2.552E-01
  29  6.21950440   0.770  -0.06474   3.63242   6.13219  -0.24559   0.00000   6.723E-01   0.000E+00   3.277E-01
  30  6.23365401   0.770  -0.09125   3.63183   6.14382  -0.21057   0.00000   5.706E-01   0.000E+00   4.294E-01
  31  6.24735712   0.770  -0.12201   3.63111   6.15728  -0.16998   0.00000   4.393E-01   0.000E+00   5.607E-01
  32  6.26064106   0.770  -0.15699   3.63027   6.17257  -0.12397   0.00000   2.932E-01   0.000E+00   7.068E-01
  33  6.27353071   0.770  -0.19374   3.62936   6.18863  -0.07560   0.00000   1.661E-01   0.000E+00   8.339E-01
  34  6.28604880   0.770  -0.22992   3.62848   6.20444  -0.02791   0.00000   8.462E-02   0.000E+00   9.154E-01
  35  6.29821616   0.770  -0.26336   3.62767   6.21908   0.01622   0.00000   5.924E-02   0.000E+00   9.408E-01
  36  6.31005190   0.770  -0.29383   3.62695   6.23241   0.05647   0.00000   4.053E-02   0.000E+00   9.595E-01
  37  6.32157363   0.770  -0.32201   3.62630   6.24478   0.09379   0.00000   2.646E-02   0.000E+00   9.735E-01
  38  6.33279756   0.770  -0.34779   3.62572   6.25611   0.12810   0.00000   1.734E-02   0.000E+00   9.827E-01
  39  6.34373872   0.770  -0.37174   3.62520   6.26668   0.16005   0.00000   1.114E-02   0.000E+00   9.889E-01
  40  6.35441100   0.770  -0.39398   3.62472   6.27652   0.18983   0.00000   6.407E-03   0.000E+00   9.936E-01
  41  6.36482729   0.770  -0.41468   3.62429   6.28570   0.21762   0.00000   4.000E-03   0.000E+00   9.960E-01
  42  6.38248286   0.770  -0.44756   3.62363   6.30034   0.26193   0.00000   2.247E-03   0.000E+00   9.978E-01
  43  6.39944862   0.770  -0.47715   3.62307   6.31358   0.30203   0.00000   1.000E-03   0.000E+00   9.990E-01
  44  6.41577645   0.770  -0.50404   3.62258   6.32564   0.33859   0.00000   2.337E-04   0.000E+00   9.998E-01
  45  6.43151259   0.770  -0.52867   3.62215   6.33674   0.37221   0.00000   0.000E+00   0.000E+00   1.000E+00
  46  6.44669844   0.770  -0.55122   3.62177   6.34692   0.40309   0.00000   0.000E+00   0.000E+00   1.000E+00
  47  6.46137118   0.770  -0.57217   3.62143   6.35641   0.43187   0.00000   0.000E+00   0.000E+00   1.000E+00
  48  6.47556435   0.770  -0.59172   3.62112   6.36528   0.45880   0.00000   0.000E+00   0.000E+00   1.000E+00
  49  6.48930832   0.770  -0.61002   3.62085   6.37360   0.48407   0.00000   0.000E+00   0.000E+00   1.000E+00
  50  6.50263065   0.770  -0.62722   3.62059   6.38144   0.50789   0.00000   0.000E+00   0.000E+00   1.000E+00
  51  6.51555644   0.770  -0.64350   3.62036   6.38886   0.53046   0.00000   0.000E+00   0.000E+00   1.000E+00
  52  6.52810861   0.770  -0.65894   3.62014   6.39592   0.55192   0.00000   0.000E+00   0.000E+00   1.000E+00
  53  6.54030817   0.770  -0.67344   3.61995   6.40257   0.57211   0.00000   0.000E+00   0.000E+00   1.000E+00
  54  6.55217437   0.770  -0.68726   3.61976   6.40890   0.59138   0.00000   0.000E+00   0.000E+00   1.000E+00
  55  6.56372496   0.770  -0.70053   3.61959   6.41499   0.60991   0.00000   0.000E+00   0.000E+00   1.000E+00
  56  6.57497629   0.770  -0.71326   3.61943   6.42084   0.62771   0.00000   0.000E+00   0.000E+00   1.000E+00
  57  6.58594348   0.770  -0.72527   3.61928   6.42637   0.64453   0.00000   0.000E+00   0.000E+00   1.000E+00
  58  6.59664052   0.770  -0.73696   3.61913   6.43174   0.66091   0.00000   0.000E+00   0.000E+00   1.000E+00
  59  6.60708041   0.770  -0.74814   3.61900   6.43689   0.67660   0.00000   0.000E+00   0.000E+00   1.000E+00
  60  6.61727521   0.770  -0.75887   3.61887   6.44183   0.69166   0.00000   0.000E+00   0.000E+00   1.000E+00
  61  6.62723618   0.770  -0.76935   3.61875   6.44667   0.70639   0.00000   0.000E+00   0.000E+00   1.000E+00
  62  6.63697379   0.770  -0.77926   3.61863   6.45124   0.72033   0.00000   0.000E+00   0.000E+00   1.000E+00
  63  6.64649785   0.770  -0.78909   3.61851   6.45577   0.73415   0.00000   0.000E+00   0.000E+00   1.000E+00
  64  6.65581752   0.770  -0.79832   3.61841   6.46003   0.74716   0.00000   0.000E+00   0.000E+00   1.000E+00
  65  6.66494139   0.770  -0.80753   3.61831   6.46428   0.76014   0.00000   0.000E+00   0.000E+00   1.000E+00
  66  6.67387752   0.770  -0.81621   3.61821   6.46829   0.77238   0.00000   0.000E+00   0.000E+00   1.000E+00
  67  6.68263348   0.770  -0.82485   3.61811   6.47228   0.78456   0.00000   0.000E+00   0.000E+00   1.000E+00
  68  6.69121640   0.770  -0.83308   3.61802   6.47609   0.79618   0.00000   0.000E+00   0.000E+00   1.000E+00
  69  6.69963297   0.770  -0.84118   3.61793   6.47983   0.80761   0.00000   0.000E+00   0.000E+00   1.000E+00
  70  6.70788952   0.770  -0.84906   3.61784   6.48347   0.81873   0.00000   0.000E+00   0.000E+00   1.000E+00
  71  6.71599203   0.770  -0.85666   3.61776   6.48698   0.82945   0.00000   0.000E+00   0.000E+00   1.000E+00
  72  6.72394614   0.770  -0.86426   3.61767   6.49049   0.84017   0.00000   0.000E+00   0.000E+00   1.000E+00
  73  6.73175718   0.770  -0.87140   3.61760   6.49379   0.85026   0.00000   0.000E+00   0.000E+00   1.000E+00
  74  6.73943022   0.770  -0.87851   3.61752   6.49708   0.86032   0.00000   0.000E+00   0.000E+00   1.000E+00
  75  6.74697004   0.770  -0.88548   3.61745   6.50031   0.87018   0.00000   0.000E+00   0.000E+00   1.000E+00
  76  6.75438119   0.770  -0.89215   3.61738   6.50339   0.87963   0.00000   0.000E+00   0.000E+00   1.000E+00
  77  6.76166800   0.770  -0.89883   3.61730   6.50648   0.88908   0.00000   0.000E+00   0.000E+00   1.000E+00
  78  6.76883455   0.770  -0.90528   3.61724   6.50946   0.89822   0.00000   0.000E+00   0.000E+00   1.000E+00
  79  6.77588476   0.770  -0.91154   3.61717   6.51236   0.90709   0.00000   0.000E+00   0.000E+00   1.000E+00
  80  6.78282235   0.770  -0.91780   3.61711   6.51525   0.91595   0.00000   0.000E+00   0.000E+00   1.000E+00
  81  6.78965086   0.770  -0.92385   3.61705   6.51805   0.92453   0.00000   0.000E+00   0.000E+00   1.000E+00
  82  6.79637365   0.770  -0.92971   3.61698   6.52077   0.93285   0.00000   0.000E+00   0.000E+00   1.000E+00
  83  6.80299397   0.770  -0.93558   3.61692   6.52348   0.94117   0.00000   0.000E+00   0.000E+00   1.000E+00
  84  6.80951488   0.770  -0.94133   3.61686   6.52614   0.94933   0.00000   0.000E+00   0.000E+00   1.000E+00
  85  6.81593932   0.770  -0.94682   3.61681   6.52868   0.95713   0.00000   0.000E+00   0.000E+00   1.000E+00
  86  6.82227011   0.770  -0.95232   3.61675   6.53123   0.96494   0.00000   0.000E+00   0.000E+00   1.000E+00
  87  6.82850995   0.770  -0.95781   3.61669   6.53377   0.97275   0.00000   0.000E+00   0.000E+00   1.000E+00
  88  6.83466139   0.770  -0.96300   3.61664   6.53617   0.98012   0.00000   0.000E+00   0.000E+00   1.000E+00
  89  6.84072693   0.770  -0.96816   3.61659   6.53856   0.98745   0.00000   0.000E+00   0.000E+00   1.000E+00
  90  6.84670891   0.770  -0.97332   3.61654   6.54095   0.99478   0.00000   0.000E+00   0.000E+00   1.000E+00
  91  6.85260962   0.770  -0.97838   3.61649   6.54330   1.00198   0.00000   0.000E+00   0.000E+00   1.000E+00
  92  6.85843123   0.770  -0.98322   3.61644   6.54553   1.00885   0.00000   0.000E+00   0.000E+00   1.000E+00
  93  6.86417583   0.770  -0.98805   3.61639   6.54777   1.01572   0.00000   0.000E+00   0.000E+00   1.000E+00
  94  6.86984543   0.770  -0.99288   3.61635   6.55000   1.02259   0.00000   0.000E+00   0.000E+00   1.000E+00
  95  6.87544198   0.770  -0.99759   3.61630   6.55218   1.02928   0.00000   0.000E+00   0.000E+00   1.000E+00
  96  6.88096732   0.770  -1.00213   3.61626   6.55428   1.03573   0.00000   0.000E+00   0.000E+00   1.000E+00
  97  6.88642325   0.770  -1.00666   3.61621   6.55638   1.04217   0.00000   0.000E+00   0.000E+00   1.000E+00
  98  6.89181148   0.770  -1.01119   3.61616   6.55848   1.04861   0.00000   0.000E+00   0.000E+00   1.000E+00
  99  6.89713368   0.770  -1.01565   3.61612   6.56054   1.05495   0.00000   0.000E+00   0.000E+00   1.000E+00
 100  6.90239145   0.770  -1.01990   3.61608   6.56250   1.06100   0.00000   0.000E+00   0.000E+00   1.000E+00
 101  6.90758633   0.770  -1.02414   3.61603   6.56447   1.06704   0.00000   0.000E+00   0.000E+00   1.000E+00
 102  6.91271980   0.770  -1.02839   3.61599   6.56643   1.07309   0.00000   0.000E+00   0.000E+00   1.000E+00
 103  6.91779330   0.770  -1.03264   3.61595   6.56840   1.07913   0.00000   0.000E+00   0.000E+00   1.000E+00
 104  6.92280821   0.770  -1.03667   3.61591   6.57026   1.08486   0.00000   0.000E+00   0.000E+00   1.000E+00
 105  6.92776587   0.770  -1.04065   3.61587   6.57210   1.09053   0.00000   0.000E+00   0.000E+00   1.000E+00
 106  6.93266758   0.770  -1.04464   3.61583   6.57395   1.09620   0.00000   0.000E+00   0.000E+00   1.000E+00
 107  6.93751459   0.770  -1.04863   3.61579   6.57579   1.10188   0.00000   0.000E+00   0.000E+00   1.000E+00
 108  6.94230809   0.770  -1.05258   3.61575   6.57762   1.10750   0.00000   0.000E+00   0.000E+00   1.000E+00
 109  6.94704926   0.770  -1.05632   3.61572   6.57935   1.11282   0.00000   0.000E+00   0.000E+00   1.000E+00
 110  6.95173924   0.770  -1.06005   3.61568   6.58108   1.11815   0.00000   0.000E+00   0.000E+00   1.000E+00
 111  6.95637910   0.770  -1.06379   3.61564   6.58280   1.12347   0.00000   0.000E+00   0.000E+00   1.000E+00
 112  6.96096992   0.770  -1.06753   3.61560   6.58453   1.12880   0.00000   0.000E+00   0.000E+00   1.000E+00
 113  6.96551272   0.770  -1.07124   3.61557   6.58625   1.13408   0.00000   0.000E+00   0.000E+00   1.000E+00
 114  6.97000849   0.770  -1.07475   3.61553   6.58787   1.13908   0.00000   0.000E+00   0.000E+00   1.000E+00
 115  6.97445820   0.770  -1.07825   3.61550   6.58948   1.14408   0.00000   0.000E+00   0.000E+00   1.000E+00
 116  6.97886277   0.770  -1.08176   3.61546   6.59110   1.14908   0.00000   0.000E+00   0.000E+00   1.000E+00
 117  6.98322313   0.770  -1.08527   3.61543   6.59272   1.15408   0.00000   0.000E+00   0.000E+00   1.000E+00
 118  6.98754014   0.770  -1.08878   3.61540   6.59434   1.15908   0.00000   0.000E+00   0.000E+00   1.000E+00
 119  6.99181466   0.770  -1.09212   3.61536   6.59588   1.16384   0.00000   0.000E+00   0.000E+00   1.000E+00
 120  6.99604752   0.770  -1.09541   3.61533   6.59740   1.16853   0.00000   0.000E+00   0.000E+00   1.000E+00
 121  7.00023952   0.770  -1.09870   3.61530   6.59892   1.17322   0.00000   0.000E+00   0.000E+00   1.000E+00
 122  7.00439145   0.770  -1.10199   3.61526   6.60044   1.17791   0.00000   0.000E+00   0.000E+00   1.000E+00
 123  7.00850405   0.770  -1.10528   3.61523   6.60196   1.18260   0.00000   0.000E+00   0.000E+00   1.000E+00
 124  7.01257808   0.770  -1.10855   3.61520   6.60348   1.18727   0.00000   1.236E-05   0.000E+00   1.000E+00
 125  7.01661425   0.770  -1.11164   3.61517   6.60490   1.19166   0.00000   1.769E-04   0.000E+00   9.998E-01
 126  7.02061325   0.770  -1.11472   3.61514   6.60632   1.19606   0.00000   3.414E-04   0.000E+00   9.997E-01
 127  7.02457576   0.770  -1.11781   3.61511   6.60775   1.20045   0.00000   5.059E-04   0.000E+00   9.995E-01
 128  7.02850244   0.770  -1.12090   3.61508   6.60917   1.20485   0.00000   6.704E-04   0.000E+00   9.993E-01
 129  7.03239394   0.770  -1.12398   3.61505   6.61059   1.20924   0.00000   8.348E-04   0.000E+00   9.992E-01
 130  7.03625088   0.770  -1.12707   3.61502   6.61201   1.21363   0.00000   9.993E-04   0.000E+00   9.990E-01
 131  7.04007387   0.770  -1.12997   3.61499   6.61335   1.21776   0.00000   1.000E-03   0.000E+00   9.990E-01
 132  7.04386350   0.770  -1.13286   3.61496   6.61468   1.22188   0.00000   1.000E-03   0.000E+00   9.990E-01
 133  7.04762034   0.770  -1.13576   3.61493   6.61602   1.22600   0.00000   1.000E-03   0.000E+00   9.990E-01
 134  7.05134497   0.770  -1.13866   3.61490   6.61735   1.23012   0.00000   1.000E-03   0.000E+00   9.990E-01
 135  7.05503792   0.770  -1.14155   3.61487   6.61869   1.23425   0.00000   1.000E-03   0.000E+00   9.990E-01
 136  7.05869974   0.770  -1.14445   3.61484   6.62003   1.23837   0.00000   1.000E-03   0.000E+00   9.990E-01
 137  7.06233094   0.770  -1.14725   3.61482   6.62132   1.24236   0.00000   1.000E-03   0.000E+00   9.990E-01
 138  7.06593203   0.770  -1.14997   3.61479   6.62257   1.24623   0.00000   1.000E-03   0.000E+00   9.990E-01
 139  7.06950350   0.770  -1.15269   3.61476   6.62381   1.25010   0.00000   1.000E-03   0.000E+00   9.990E-01
 140  7.07304585   0.770  -1.15540   3.61473   6.62506   1.25397   0.00000   1.000E-03   0.000E+00   9.990E-01
 141  7.07655953   0.770  -1.15812   3.61471   6.62631   1.25784   0.00000   1.000E-03   0.000E+00   9.990E-01
 142  7.08004502   0.770  -1.16084   3.61468   6.62756   1.26171   0.00000   1.000E-03   0.000E+00   9.990E-01
 143  7.08350275   0.770  -1.16355   3.61465   6.62881   1.26558   0.00000   1.000E-03   0.000E+00   9.990E-01
 144  7.08693317   0.770  -1.16617   3.61462   6.63002   1.26931   0.00000   1.000E-03   0.000E+00   9.990E-01
 145  7.09033671   0.770  -1.16872   3.61460   6.63119   1.27294   0.00000   1.000E-03   0.000E+00   9.990E-01
 146  7.09371378   0.770  -1.17127   3.61457   6.63236   1.27656   0.00000   1.000E-03   0.000E+00   9.990E-01
 147  7.09706480   0.770  -1.17382   3.61455   6.63353   1.28019   0.00000   1.000E-03   0.000E+00   9.990E-01
 148  7.10039015   0.770  -1.17637   3.61452   6.63470   1.28382   0.00000   1.000E-03   0.000E+00   9.990E-01
 149  7.10369024   0.770  -1.17892   3.61450   6.63588   1.28745   0.00000   1.000E-03   0.000E+00   9.990E-01
 150  7.10696544   0.770  -1.18146   3.61447   6.63705   1.29108   0.00000   1.000E-03   0.000E+00   9.990E-01
 151  7.11021612   0.770  -1.18397   3.61444   6.63820   1.29466   0.00000   1.032E-03   0.000E+00   9.990E-01
 152  7.11344266   0.770  -1.18637   3.61442   6.63930   1.29807   0.00000   1.159E-03   0.000E+00   9.988E-01
 153  7.11664540   0.770  -1.18876   3.61440   6.64040   1.30148   0.00000   1.287E-03   0.000E+00   9.987E-01
 154  7.11982469   0.770  -1.19115   3.61437   6.64150   1.30489   0.00000   1.414E-03   0.000E+00   9.986E-01
 155  7.12298088   0.770  -1.19354   3.61435   6.64259   1.30829   0.00000   1.542E-03   0.000E+00   9.985E-01
 156  7.12611430   0.770  -1.19593   3.61432   6.64369   1.31170   0.00000   1.669E-03   0.000E+00   9.983E-01
 157  7.12922527   0.770  -1.19832   3.61430   6.64479   1.31511   0.00000   1.797E-03   0.000E+00   9.982E-01
 158  7.13231411   0.770  -1.20071   3.61427   6.64589   1.31852   0.00000   1.924E-03   0.000E+00   9.981E-01
 159  7.13538114   0.770  -1.20304   3.61425   6.64696   1.32185   0.00000   2.000E-03   0.000E+00   9.980E-01
 160  7.13842666   0.770  -1.20528   3.61423   6.64799   1.32504   0.00000   2.000E-03   0.000E+00   9.980E-01
 161  7.14145098   0.770  -1.20752   3.61421   6.64902   1.32824   0.00000   2.000E-03   0.000E+00   9.980E-01
 162  7.14445438   0.770  -1.20977   3.61418   6.65004   1.33144   0.00000   2.000E-03   0.000E+00   9.980E-01
 163  7.14743715   0.770  -1.21201   3.61416   6.65107   1.33464   0.00000   2.000E-03   0.000E+00   9.980E-01
 164  7.15039958   0.770  -1.21425   3.61414   6.65210   1.33784   0.00000   2.000E-03   0.000E+00   9.980E-01
 165  7.15334193   0.770  -1.21649   3.61411   6.65313   1.34104   0.00000   2.000E-03   0.000E+00   9.980E-01
 166  7.15626449   0.770  -1.21874   3.61409   6.65416   1.34424   0.00000   2.000E-03   0.000E+00   9.980E-01
 167  7.15916750   0.770  -1.22097   3.61407   6.65519   1.34743   0.00000   2.000E-03   0.000E+00   9.980E-01
 168  7.16205125   0.770  -1.22307   3.61405   6.65615   1.35042   0.00000   2.000E-03   0.000E+00   9.980E-01
 169  7.16491597   0.770  -1.22518   3.61403   6.65712   1.35341   0.00000   2.000E-03   0.000E+00   9.980E-01
 170  7.16776191   0.770  -1.22728   3.61401   6.65808   1.35640   0.00000   2.000E-03   0.000E+00   9.980E-01
 171  7.17058933   0.770  -1.22938   3.61398   6.65904   1.35939   0.00000   2.000E-03   0.000E+00   9.980E-01
 172  7.17339846   0.770  -1.23148   3.61396   6.66001   1.36238   0.00000   2.000E-03   0.000E+00   9.980E-01
 173  7.17618954   0.770  -1.23358   3.61394   6.66097   1.36538   0.00000   2.000E-03   0.000E+00   9.980E-01
 174  7.17896280   0.770  -1.23568   3.61392   6.66194   1.36837   0.00000   2.000E-03   0.000E+00   9.980E-01
 175  7.18171845   0.770  -1.23779   3.61390   6.66290   1.37136   0.00000   2.000E-03   0.000E+00   9.980E-01
 176  7.18445674   0.770  -1.23987   3.61388   6.66386   1.37433   0.00000   2.012E-03   0.000E+00   9.980E-01
 177  7.18717786   0.770  -1.24184   3.61386   6.66476   1.37714   0.00000   2.117E-03   0.000E+00   9.979E-01
 178  7.18988205   0.770  -1.24381   3.61384   6.66566   1.37995   0.00000   2.223E-03   0.000E+00   9.978E-01
 179  7.19256949   0.770  -1.24578   3.61382   6.66657   1.38275   0.00000   2.328E-03   0.000E+00   9.977E-01
 180  7.19524042   0.770  -1.24774   3.61380   6.66747   1.38556   0.00000   2.433E-03   0.000E+00   9.976E-01
 181  7.19789501   0.770  -1.24971   3.61378   6.66837   1.38837   0.00000   2.538E-03   0.000E+00   9.975E-01
 182  7.20053348   0.770  -1.25168   3.61376   6.66928   1.39118   0.00000   2.643E-03   0.000E+00   9.974E-01
 183  7.20315601   0.770  -1.25365   3.61375   6.67018   1.39398   0.00000   2.748E-03   0.000E+00   9.973E-01
 184  7.20576281   0.770  -1.25562   3.61373   6.67109   1.39679   0.00000   2.853E-03   0.000E+00   9.971E-01
 185  7.20835404   0.770  -1.25758   3.61371   6.67199   1.39960   0.00000   2.958E-03   0.000E+00   9.970E-01
 186  7.21092992   0.770  -1.25948   3.61369   6.67286   1.40230   0.00000   3.059E-03   0.000E+00   9.969E-01
 187  7.21349060   0.770  -1.26132   3.61367   6.67370   1.40494   0.00000   3.158E-03   0.000E+00   9.968E-01
 188  7.21603627   0.770  -1.26316   3.61365   6.67455   1.40758   0.00000   3.256E-03   0.000E+00   9.967E-01
 189  7.21856711   0.770  -1.26500   3.61364   6.67539   1.41021   0.00000   3.354E-03   0.000E+00   9.966E-01
 190  7.22108328   0.770  -1.26685   3.61362   6.67624   1.41285   0.00000   3.453E-03   0.000E+00   9.965E-01
 191  7.22358496   0.770  -1.26869   3.61360   6.67708   1.41548   0.00000   3.551E-03   0.000E+00   9.964E-01
 192  7.22607232   0.770  -1.27053   3.61358   6.67793   1.41812   0.00000   3.650E-03   0.000E+00   9.964E-01
 193  7.22854551   0.770  -1.27237   3.61357   6.67877   1.42076   0.00000   3.748E-03   0.000E+00   9.963E-01
 194  7.23100469   0.770  -1.27421   3.61355   6.67962   1.42339   0.00000   3.846E-03   0.000E+00   9.962E-01
 195  7.23345003   0.770  -1.27606   3.61353   6.68047   1.42603   0.00000   3.945E-03   0.000E+00   9.961E-01
 196  7.23588167   0.770  -1.27785   3.61351   6.68129   1.42859   0.00000   4.040E-03   0.000E+00   9.960E-01
 197  7.23829978   0.770  -1.27957   3.61350   6.68208   1.43107   0.00000   4.133E-03   0.000E+00   9.959E-01
 198  7.24070449   0.770  -1.28130   3.61348   6.68287   1.43354   0.00000   4.225E-03   0.000E+00   9.958E-01
 199  7.24309597   0.770  -1.28302   3.61347   6.68366   1.43601   0.00000   4.317E-03   0.000E+00   9.957E-01
 200  7.24547435   0.770  -1.28475   3.61345   6.68446   1.43848   0.00000   4.409E-03   0.000E+00   9.956E-01
 201  7.24783977   0.770  -1.28647   3.61343   6.68525   1.44095   0.00000   4.501E-03   0.000E+00   9.955E-01
 202  7.25019238   0.770  -1.28820   3.61342   6.68604   1.44342   0.00000   4.593E-03   0.000E+00   9.954E-01
 203  7.25253232   0.770  -1.28992   3.61340   6.68683   1.44589   0.00000   4.685E-03   0.000E+00   9.953E-01
 204  7.25485971   0.770  -1.29165   3.61339   6.68763   1.44836   0.00000   4.778E-03   0.000E+00   9.952E-01
 205  7.25717470   0.770  -1.29337   3.61337   6.68842   1.45084   0.00000   4.870E-03   0.000E+00   9.951E-01
 206  7.25947742   0.770  -1.29510   3.61336   6.68921   1.45331   0.00000   4.962E-03   0.000E+00   9.950E-01
 207  7.26176799   0.770  -1.29676   3.61334   6.68997   1.45569   0.00000   5.051E-03   0.000E+00   9.949E-01
 208  7.26404654   0.770  -1.29837   3.61333   6.69071   1.45802   0.00000   5.137E-03   0.000E+00   9.949E-01
 209  7.26631320   0.770  -1.29999   3.61331   6.69144   1.46034   0.00000   5.223E-03   0.000E+00   9.948E-01
 210  7.26856809   0.770  -1.30160   3.61330   6.69218   1.46266   0.00000   5.309E-03   0.000E+00   9.947E-01
 211  7.27081133   0.770  -1.30321   3.61328   6.69292   1.46499   0.00000   5.396E-03   0.000E+00   9.946E-01
 212  7.27304305   0.770  -1.30483   3.61327   6.69365   1.46731   0.00000   5.482E-03   0.000E+00   9.945E-01
 213  7.27526335   0.770  -1.30644   3.61325   6.69439   1.46963   0.00000   5.568E-03   0.000E+00   9.944E-01
 214  7.27747237   0.770  -1.30806   3.61324   6.69513   1.47196   0.00000   5.654E-03   0.000E+00   9.943E-01
 215  7.27967020   0.770  -1.30967   3.61322   6.69586   1.47428   0.00000   5.740E-03   0.000E+00   9.943E-01
 216  7.28185697   0.770  -1.31129   3.61321   6.69660   1.47660   0.00000   5.827E-03   0.000E+00   9.942E-01
 217  7.28403278   0.770  -1.31290   3.61319   6.69734   1.47893   0.00000   5.913E-03   0.000E+00   9.941E-01
 218  7.28619775   0.770  -1.31452   3.61318   6.69807   1.48125   0.00000   5.999E-03   0.000E+00   9.940E-01
 219  7.28835197   0.770  -1.31603   3.61317   6.69875   1.48343   0.00000   6.160E-03   0.000E+00   9.938E-01
 220  7.29049557   0.770  -1.31753   3.61316   6.69943   1.48562   0.00000   6.321E-03   0.000E+00   9.937E-01
 221  7.29262863   0.770  -1.31904   3.61314   6.70011   1.48780   0.00000   6.483E-03   0.000E+00   9.935E-01
 222  7.29475127   0.770  -1.32055   3.61313   6.70079   1.48998   0.00000   6.644E-03   0.000E+00   9.934E-01
 223  7.29686359   0.770  -1.32206   3.61312   6.70147   1.49217   0.00000   6.806E-03   0.000E+00   9.932E-01
 224  7.29896568   0.770  -1.32357   3.61311   6.70215   1.49435   0.00000   6.967E-03   0.000E+00   9.930E-01
 225  7.30105764   0.770  -1.32508   3.61310   6.70283   1.49654   0.00000   7.128E-03   0.000E+00   9.929E-01
 226  7.30313958   0.770  -1.32659   3.61308   6.70351   1.49872   0.00000   7.290E-03   0.000E+00   9.927E-01
 227  7.30521158   0.770  -1.32810   3.61307   6.70419   1.50090   0.00000   7.451E-03   0.000E+00   9.925E-01
 228  7.30727375   0.770  -1.32961   3.61306   6.70487   1.50309   0.00000   7.612E-03   0.000E+00   9.924E-01
 229  7.30932617   0.770  -1.33112   3.61305   6.70555   1.50527   0.00000   7.774E-03   0.000E+00   9.922E-01
 230  7.31136894   0.770  -1.33262   3.61303   6.70623   1.50745   0.00000   7.935E-03   0.000E+00   9.921E-01
 231  7.31340214   0.770  -1.33407   3.61302   6.70688   1.50956   0.00000   8.090E-03   0.000E+00   9.919E-01
 232  7.31542587   0.770  -1.33548   3.61301   6.70750   1.51161   0.00000   8.241E-03   0.000E+00   9.918E-01
 233  7.31744021   0.770  -1.33689   3.61300   6.70813   1.51367   0.00000   8.392E-03   0.000E+00   9.916E-01
 234  7.31944525   0.770  -1.33831   3.61299   6.70876   1.51572   0.00000   8.543E-03   0.000E+00   9.915E-01
 235  7.32144108   0.770  -1.33972   3.61298   6.70939   1.51778   0.00000   8.694E-03   0.000E+00   9.913E-01
 236  7.32342778   0.770  -1.34113   3.61297   6.71002   1.51983   0.00000   8.845E-03   0.000E+00   9.912E-01
 237  7.32540543   0.770  -1.34254   3.61296   6.71065   1.52189   0.00000   8.996E-03   0.000E+00   9.910E-01
 238  7.32737411   0.770  -1.34395   3.61294   6.71128   1.52394   0.00000   9.147E-03   0.000E+00   9.909E-01
 239  7.32933392   0.770  -1.34536   3.61293   6.71190   1.52600   0.00000   9.298E-03   0.000E+00   9.907E-01
 240  7.33128492   0.770  -1.34677   3.61292   6.71253   1.52805   0.00000   9.449E-03   0.000E+00   9.906E-01
 241  7.33322719   0.770  -1.34818   3.61291   6.71316   1.53011   0.00000   9.599E-03   0.000E+00   9.904E-01
 242  7.33516081   0.770  -1.34959   3.61290   6.71379   1.53216   0.00000   9.750E-03   0.000E+00   9.902E-01
 243  7.33708587   0.770  -1.35100   3.61289   6.71442   1.53422   0.00000   9.901E-03   0.000E+00   9.901E-01
 244  7.33900243   0.770  -1.35238   3.61288   6.71503   1.53623   0.00000   1.005E-02   0.000E+00   9.900E-01
 245  7.34091056   0.770  -1.35369   3.61287   6.71561   1.53816   0.00000   1.019E-02   0.000E+00   9.898E-01
 246  7.34281035   0.770  -1.35501   3.61286   6.71619   1.54009   0.00000   1.033E-02   0.000E+00   9.897E-01
 247  7.34470187   0.770  -1.35632   3.61285   6.71678   1.54202   0.00000   1.047E-02   0.000E+00   9.895E-01
 248  7.34658519   0.770  -1.35764   3.61284   6.71736   1.54395   0.00000   1.061E-02   0.000E+00   9.894E-01
 249  7.34846037   0.770  -1.35896   3.61283   6.71794   1.54588   0.00000   1.075E-02   0.000E+00   9.892E-01
 250  7.35032749   0.770  -1.36027   3.61282   6.71852   1.54781   0.00000   1.089E-02   0.000E+00   9.891E-01
 251  7.35218662   0.770  -1.36159   3.61281   6.71910   1.54975   0.00000   1.104E-02   0.000E+00   9.890E-01
 252  7.35403782   0.770  -1.36291   3.61280   6.71968   1.55168   0.00000   1.118E-02   0.000E+00   9.888E-01
 253  7.35588117   0.770  -1.36422   3.61279   6.72027   1.55361   0.00000   1.132E-02   0.000E+00   9.887E-01
 254  7.35771672   0.770  -1.36554   3.61279   6.72085   1.55554   0.00000   1.146E-02   0.000E+00   9.885E-01
 255  7.35954455   0.770  -1.36686   3.61278   6.72143   1.55747   0.00000   1.160E-02   0.000E+00   9.884E-01
 256  7.36136472   0.770  -1.36817   3.61277   6.72201   1.55940   0.00000   1.174E-02   0.000E+00   9.883E-01
 257  7.36317729   0.770  -1.36949   3.61276   6.72259   1.56133   0.00000   1.188E-02   0.000E+00   9.881E-01
 258  7.36498233   0.770  -1.37079   3.61275   6.72317   1.56325   0.00000   1.203E-02   0.000E+00   9.880E-01
 259  7.36677990   0.770  -1.37202   3.61274   6.72371   1.56506   0.00000   1.223E-02   0.000E+00   9.878E-01
 260  7.36857006   0.770  -1.37325   3.61273   6.72424   1.56687   0.00000   1.243E-02   0.000E+00   9.876E-01
 261  7.37035286   0.770  -1.37447   3.61272   6.72478   1.56869   0.00000   1.262E-02   0.000E+00   9.874E-01
 262  7.37212839   0.770  -1.37570   3.61271   6.72532   1.57050   0.00000   1.282E-02   0.000E+00   9.872E-01
 263  7.37389668   0.770  -1.37693   3.61271   6.72586   1.57232   0.00000   1.302E-02   0.000E+00   9.870E-01
 264  7.37565780   0.770  -1.37816   3.61270   6.72640   1.57413   0.00000   1.322E-02   0.000E+00   9.868E-01
 265  7.37741181   0.770  -1.37939   3.61269   6.72694   1.57595   0.00000   1.341E-02   0.000E+00   9.866E-01
 266  7.37915876   0.770  -1.38062   3.61268   6.72748   1.57776   0.00000   1.361E-02   0.000E+00   9.864E-01
 267  7.38089871   0.770  -1.38185   3.61267   6.72801   1.57958   0.00000   1.381E-02   0.000E+00   9.862E-01
 268  7.38263172   0.770  -1.38307   3.61266   6.72855   1.58139   0.00000   1.401E-02   0.000E+00   9.860E-01
 269  7.38435784   0.770  -1.38430   3.61265   6.72909   1.58321   0.00000   1.420E-02   0.000E+00   9.858E-01
 270  7.38607713   0.770  -1.38553   3.61265   6.72963   1.58502   0.00000   1.440E-02   0.000E+00   9.856E-01
 271  7.38778964   0.770  -1.38676   3.61264   6.73017   1.58684   0.00000   1.460E-02   0.000E+00   9.854E-01
 272  7.38949543   0.770  -1.38799   3.61263   6.73071   1.58865   0.00000   1.480E-02   0.000E+00   9.852E-01
 273  7.39119453   0.770  -1.38922   3.61262   6.73124   1.59047   0.00000   1.499E-02   0.000E+00   9.850E-01
 274  7.39288702   0.770  -1.39036   3.61261   6.73174   1.59218   0.00000   1.524E-02   0.000E+00   9.848E-01
 275  7.39457294   0.770  -1.39151   3.61261   6.73224   1.59388   0.00000   1.548E-02   0.000E+00   9.845E-01
 276  7.39625234   0.770  -1.39265   3.61260   6.73274   1.59559   0.00000   1.573E-02   0.000E+00   9.843E-01
 277  7.39792527   0.770  -1.39379   3.61259   6.73324   1.59729   0.00000   1.598E-02   0.000E+00   9.840E-01
 278  7.39959178   0.770  -1.39494   3.61259   6.73374   1.59900   0.00000   1.622E-02   0.000E+00   9.838E-01
 279  7.40125192   0.770  -1.39608   3.61258   6.73424   1.60070   0.00000   1.647E-02   0.000E+00   9.835E-01
 280  7.40290573   0.770  -1.39723   3.61257   6.73474   1.60241   0.00000   1.671E-02   0.000E+00   9.833E-01
 281  7.40455328   0.770  -1.39837   3.61257   6.73524   1.60412   0.00000   1.696E-02   0.000E+00   9.830E-01
 282  7.40619459   0.770  -1.39951   3.61256   6.73573   1.60582   0.00000   1.720E-02   0.000E+00   9.828E-01
 283  7.40782973   0.770  -1.40066   3.61255   6.73623   1.60753   0.00000   1.745E-02   0.000E+00   9.826E-01
 284  7.40945874   0.770  -1.40180   3.61255   6.73673   1.60923   0.00000   1.770E-02   0.000E+00   9.823E-01
 285  7.41108165   0.770  -1.40295   3.61254   6.73723   1.61094   0.00000   1.794E-02   0.000E+00   9.821E-01
 286  7.41269853   0.770  -1.40409   3.61253   6.73773   1.61264   0.00000   1.819E-02   0.000E+00   9.818E-01
 287  7.41430940   0.770  -1.40524   3.61253   6.73823   1.61435   0.00000   1.843E-02   0.000E+00   9.816E-01
 288  7.41591433   0.770  -1.40638   3.61252   6.73873   1.61605   0.00000   1.868E-02   0.000E+00   9.813E-01
 289  7.41751334   0.770  -1.40752   3.61251   6.73922   1.61776   0.00000   1.892E-02   0.000E+00   9.811E-01
 290  7.41910649   0.770  -1.40861   3.61251   6.73970   1.61939   0.00000   1.920E-02   0.000E+00   9.808E-01
 291  7.42069382   0.770  -1.40968   3.61250   6.74016   1.62098   0.00000   1.948E-02   0.000E+00   9.805E-01
 292  7.42227537   0.770  -1.41074   3.61249   6.74062   1.62258   0.00000   1.977E-02   0.000E+00   9.802E-01
 293  7.42385117   0.770  -1.41181   3.61249   6.74109   1.62417   0.00000   2.006E-02   0.000E+00   9.799E-01
 294  7.42542128   0.770  -1.41288   3.61248   6.74155   1.62576   0.00000   2.034E-02   0.000E+00   9.797E-01
 295  7.42698574   0.770  -1.41394   3.61248   6.74201   1.62736   0.00000   2.063E-02   0.000E+00   9.794E-01
 296  7.42854458   0.770  -1.41501   3.61247   6.74247   1.62895   0.00000   2.091E-02   0.000E+00   9.791E-01
 297  7.43009784   0.770  -1.41607   3.61247   6.74293   1.63055   0.00000   2.120E-02   0.000E+00   9.788E-01
 298  7.43164557   0.770  -1.41714   3.61246   6.74340   1.63214   0.00000   2.149E-02   0.000E+00   9.785E-01
 299  7.43318780   0.770  -1.41820   3.61245   6.74386   1.63374   0.00000   2.177E-02   0.000E+00   9.782E-01
 300  7.43472457   0.770  -1.41927   3.61245   6.74432   1.63533   0.00000   2.206E-02   0.000E+00   9.779E-01
 301  7.43625593   0.770  -1.42033   3.61244   6.74478   1.63692   0.00000   2.234E-02   0.000E+00   9.777E-01
 302  7.43778191   0.770  -1.42140   3.61244   6.74525   1.63852   0.00000   2.263E-02   0.000E+00   9.774E-01
 303  7.43930254   0.770  -1.42247   3.61243   6.74571   1.64011   0.00000   2.292E-02   0.000E+00   9.771E-01
 304  7.44081786   0.770  -1.42353   3.61243   6.74617   1.64171   0.00000   2.320E-02   0.000E+00   9.768E-01
 305  7.44232792   0.770  -1.42460   3.61242   6.74663   1.64330   0.00000   2.349E-02   0.000E+00   9.765E-01
 306  7.44383275   0.770  -1.42566   3.61241   6.74710   1.64490   0.00000   2.377E-02   0.000E+00   9.762E-01
 307  7.44533238   0.770  -1.42671   3.61241   6.74755   1.64647   0.00000   2.407E-02   0.000E+00   9.759E-01
 308  7.44682685   0.770  -1.42770   3.61240   6.74798   1.64796   0.00000   2.439E-02   0.000E+00   9.756E-01
 309  7.44831619   0.770  -1.42869   3.61240   6.74841   1.64945   0.00000   2.471E-02   0.000E+00   9.753E-01
 310  7.44980044   0.770  -1.42968   3.61239   6.74884   1.65093   0.00000   2.503E-02   0.000E+00   9.750E-01
 311  7.45127964   0.770  -1.43067   3.61239   6.74927   1.65242   0.00000   2.535E-02   0.000E+00   9.747E-01
 312  7.45275382   0.770  -1.43167   3.61238   6.74970   1.65391   0.00000   2.567E-02   0.000E+00   9.743E-01
 313  7.45422301   0.770  -1.43266   3.61238   6.75012   1.65540   0.00000   2.599E-02   0.000E+00   9.740E-01
 314  7.45568725   0.770  -1.43365   3.61237   6.75055   1.65689   0.00000   2.631E-02   0.000E+00   9.737E-01
 315  7.45714656   0.770  -1.43464   3.61237   6.75098   1.65838   0.00000   2.663E-02   0.000E+00   9.734E-01
 316  7.45860099   0.770  -1.43563   3.61236   6.75141   1.65987   0.00000   2.694E-02   0.000E+00   9.731E-01
 317  7.46005057   0.770  -1.43662   3.61236   6.75184   1.66136   0.00000   2.726E-02   0.000E+00   9.727E-01
 318  7.46149532   0.770  -1.43761   3.61235   6.75227   1.66285   0.00000   2.758E-02   0.000E+00   9.724E-01
 319  7.46293528   0.770  -1.43860   3.61234   6.75270   1.66434   0.00000   2.790E-02   0.000E+00   9.721E-01
 320  7.46437049   0.770  -1.43959   3.61234   6.75313   1.66582   0.00000   2.822E-02   0.000E+00   9.718E-01
 321  7.46580096   0.770  -1.44058   3.61233   6.75356   1.66731   0.00000   2.854E-02   0.000E+00   9.715E-01
 322  7.46722674   0.770  -1.44157   3.61233   6.75398   1.66880   0.00000   2.886E-02   0.000E+00   9.711E-01
 323  7.46864786   0.770  -1.44257   3.61232   6.75441   1.67029   0.00000   2.918E-02   0.000E+00   9.708E-01
 324  7.47006434   0.770  -1.44356   3.61232   6.75484   1.67178   0.00000   2.950E-02   0.000E+00   9.705E-01
 325  7.47147621   0.770  -1.44455   3.61231   6.75527   1.67327   0.00000   2.982E-02   0.000E+00   9.702E-01
 326  7.47288351   0.770  -1.44551   3.61231   6.75569   1.67471   0.00000   3.015E-02   0.000E+00   9.698E-01
 327  7.47428626   0.770  -1.44642   3.61230   6.75608   1.67610   0.00000   3.050E-02   0.000E+00   9.695E-01
 328  7.47568450   0.770  -1.44734   3.61230   6.75648   1.67749   0.00000   3.085E-02   0.000E+00   9.692E-01
 329  7.47707825   0.770  -1.44826   3.61230   6.75688   1.67888   0.00000   3.119E-02   0.000E+00   9.688E-01
 330  7.47846755   0.770  -1.44918   3.61229   6.75728   1.68027   0.00000   3.154E-02   0.000E+00   9.685E-01
 331  7.47985241   0.770  -1.45010   3.61229   6.75768   1.68166   0.00000   3.189E-02   0.000E+00   9.681E-01
 332  7.48123287   0.770  -1.45102   3.61228   6.75808   1.68305   0.00000   3.223E-02   0.000E+00   9.678E-01
 333  7.48260895   0.770  -1.45194   3.61228   6.75847   1.68444   0.00000   3.258E-02   0.000E+00   9.674E-01
 334  7.48398069   0.770  -1.45286   3.61228   6.75887   1.68583   0.00000   3.293E-02   0.000E+00   9.671E-01
 335  7.48534811   0.770  -1.45377   3.61227   6.75927   1.68722   0.00000   3.327E-02   0.000E+00   9.667E-01
 336  7.48671124   0.770  -1.45469   3.61227   6.75967   1.68861   0.00000   3.362E-02   0.000E+00   9.664E-01
 337  7.48807011   0.770  -1.45561   3.61226   6.76007   1.69000   0.00000   3.397E-02   0.000E+00   9.660E-01
 338  7.48942473   0.770  -1.45653   3.61226   6.76046   1.69139   0.00000   3.431E-02   0.000E+00   9.657E-01
 339  7.49077514   0.770  -1.45745   3.61226   6.76086   1.69278   0.00000   3.466E-02   0.000E+00   9.653E-01
 340  7.49212137   0.770  -1.45837   3.61225   6.76126   1.69417   0.00000   3.501E-02   0.000E+00   9.650E-01
 341  7.49346344   0.770  -1.45929   3.61225   6.76166   1.69556   0.00000   3.535E-02   0.000E+00   9.646E-01
 342  7.49480137   0.770  -1.46020   3.61224   6.76206   1.69695   0.00000   3.570E-02   0.000E+00   9.643E-01
 343  7.49613519   0.770  -1.46112   3.61224   6.76246   1.69834   0.00000   3.605E-02   0.000E+00   9.640E-01
 344  7.49746493   0.770  -1.46204   3.61224   6.76285   1.69973   0.00000   3.639E-02   0.000E+00   9.636E-01
 345  7.49879061   0.770  -1.46296   3.61223   6.76325   1.70112   0.00000   3.674E-02   0.000E+00   9.633E-01
 346  7.50011226   0.770  -1.46386   3.61223   6.76364   1.70248   0.00000   3.711E-02   0.000E+00   9.629E-01
 347  7.50142989   0.770  -1.46471   3.61223   6.76401   1.70378   0.00000   3.757E-02   0.000E+00   9.624E-01
 348  7.50274354   0.770  -1.46557   3.61222   6.76438   1.70507   0.00000   3.803E-02   0.000E+00   9.620E-01
 349  7.50405323   0.770  -1.46642   3.61222   6.76475   1.70637   0.00000   3.849E-02   0.000E+00   9.615E-01
 350  7.50535898   0.770  -1.46727   3.61222   6.76512   1.70766   0.00000   3.895E-02   0.000E+00   9.610E-01
 351  7.50666082   0.770  -1.46812   3.61222   6.76549   1.70895   0.00000   3.941E-02   0.000E+00   9.606E-01
 352  7.50795876   0.770  -1.46897   3.61221   6.76586   1.71025   0.00000   3.987E-02   0.000E+00   9.601E-01
 353  7.50925284   0.770  -1.46982   3.61221   6.76623   1.71154   0.00000   4.033E-02   0.000E+00   9.597E-01
 354  7.51054308   0.770  -1.47068   3.61221   6.76660   1.71284   0.00000   4.079E-02   0.000E+00   9.592E-01
 355  7.51182949   0.770  -1.47153   3.61220   6.76697   1.71413   0.00000   4.125E-02   0.000E+00   9.587E-01
 356  7.51311210   0.770  -1.47238   3.61220   6.76734   1.71542   0.00000   4.171E-02   0.000E+00   9.583E-01
 357  7.51439094   0.770  -1.47323   3.61220   6.76771   1.71672   0.00000   4.217E-02   0.000E+00   9.578E-01
 358  7.51566602   0.770  -1.47408   3.61220   6.76808   1.71801   0.00000   4.263E-02   0.000E+00   9.574E-01
 359  7.51693737   0.770  -1.47493   3.61219   6.76845   1.71931   0.00000   4.309E-02   0.000E+00   9.569E-01
 360  7.51820501   0.770  -1.47578   3.61219   6.76881   1.72060   0.00000   4.355E-02   0.000E+00   9.565E-01
 361  7.51946896   0.770  -1.47664   3.61219   6.76918   1.72189   0.00000   4.401E-02   0.000E+00   9.560E-01
 362  7.52072924   0.770  -1.47749   3.61219   6.76955   1.72319   0.00000   4.447E-02   0.000E+00   9.555E-01
 363  7.52198587   0.770  -1.47834   3.61218   6.76992   1.72448   0.00000   4.493E-02   0.000E+00   9.551E-01
 364  7.52323888   0.770  -1.47919   3.61218   6.77029   1.72578   0.00000   4.539E-02   0.000E+00   9.546E-01
 365  7.52448829   0.770  -1.48004   3.61218   6.77066   1.72707   0.00000   4.585E-02   0.000E+00   9.542E-01
 366  7.52573411   0.770  -1.48089   3.61217   6.77103   1.72836   0.00000   4.631E-02   0.000E+00   9.537E-01
 367  7.52697636   0.770  -1.48175   3.61217   6.77140   1.72966   0.00000   4.677E-02   0.000E+00   9.532E-01
 368  7.52821507   0.770  -1.48257   3.61217   6.77176   1.73091   0.00000   4.723E-02   0.000E+00   9.528E-01
 369  7.52945026   0.770  -1.48335   3.61217   6.77210   1.73210   0.00000   4.770E-02   0.000E+00   9.523E-01
 370  7.53068195   0.770  -1.48414   3.61216   6.77245   1.73330   0.00000   4.817E-02   0.000E+00   9.518E-01
 371  7.53191016   0.770  -1.48493   3.61216   6.77279   1.73450   0.00000   4.863E-02   0.000E+00   9.514E-01
 372  7.53313490   0.770  -1.48571   3.61216   6.77313   1.73570   0.00000   4.910E-02   0.000E+00   9.509E-01
 373  7.53435619   0.770  -1.48650   3.61216   6.77348   1.73690   0.00000   4.957E-02   0.000E+00   9.504E-01
 374  7.53557406   0.770  -1.48729   3.61215   6.77382   1.73810   0.00000   5.004E-02   0.000E+00   9.500E-01
 375  7.53678853   0.770  -1.48808   3.61215   6.77416   1.73930   0.00000   5.051E-02   0.000E+00   9.495E-01
 376  7.53799961   0.770  -1.48886   3.61215   6.77451   1.74049   0.00000   5.098E-02   0.000E+00   9.490E-01
 377  7.53920732   0.770  -1.48965   3.61215   6.77485   1.74169   0.00000   5.144E-02   0.000E+00   9.486E-01
 378  7.54041168   0.770  -1.49044   3.61214   6.77519   1.74289   0.00000   5.191E-02   0.000E+00   9.481E-01
 379  7.54161271   0.770  -1.49122   3.61214   6.77554   1.74409   0.00000   5.238E-02   0.000E+00   9.476E-01
 380  7.54281043   0.770  -1.49201   3.61214   6.77588   1.74529   0.00000   5.285E-02   0.000E+00   9.472E-01
 381  7.54400486   0.770  -1.49280   3.61214   6.77622   1.74649   0.00000   5.332E-02   0.000E+00   9.467E-01
 382  7.54519600   0.770  -1.49359   3.61213   6.77657   1.74768   0.00000   5.379E-02   0.000E+00   9.462E-01
 383  7.54638390   0.770  -1.49437   3.61213   6.77691   1.74888   0.00000   5.425E-02   0.000E+00   9.457E-01
 384  7.54756855   0.770  -1.49516   3.61213   6.77726   1.75008   0.00000   5.472E-02   0.000E+00   9.453E-01
 385  7.54874997   0.770  -1.49595   3.61213   6.77760   1.75128   0.00000   5.519E-02   0.000E+00   9.448E-01
 386  7.54992820   0.770  -1.49673   3.61212   6.77794   1.75248   0.00000   5.566E-02   0.000E+00   9.443E-01
 387  7.55110323   0.770  -1.49752   3.61212   6.77829   1.75368   0.00000   5.613E-02   0.000E+00   9.439E-01
 388  7.55227510   0.770  -1.49831   3.61212   6.77863   1.75487   0.00000   5.660E-02   0.000E+00   9.434E-01
 389  7.55344381   0.770  -1.49910   3.61212   6.77897   1.75607   0.00000   5.706E-02   0.000E+00   9.429E-01
 390  7.55460938   0.770  -1.49988   3.61211   6.77932   1.75727   0.00000   5.753E-02   0.000E+00   9.425E-01
 391  7.55577184   0.770  -1.50067   3.61211   6.77966   1.75847   0.00000   5.800E-02   0.000E+00   9.420E-01
 392  7.65591753   0.770  -1.56351   3.61198   6.80772   1.85341   0.00000   1.245E-01   0.000E+00   8.755E-01
 393  7.73724258   0.770  -1.61073   3.61193   6.83011   1.92282   0.00000   2.153E-01   0.000E+00   7.847E-01
 394  7.80571420   0.770  -1.64608   3.61190   6.84844   1.97193   0.00000   3.257E-01   0.000E+00   6.743E-01
 395  7.86484627   0.770  -1.67189   3.61189   6.86275   2.00643   0.00000   4.412E-01   0.000E+00   5.588E-01
 396  7.91688349   0.770  -1.69096   3.61190   6.87195   2.03402   0.00000   5.487E-01   0.000E+00   4.513E-01
 397  7.96334744   0.770  -1.70448   3.61191   6.87810   2.05415   0.00000   6.418E-01   0.000E+00   3.582E-01
 398  8.00531729   0.770  -1.71399   3.61191   6.88244   2.06836   0.00000   7.160E-01   0.000E+00   2.840E-01
 399  8.04358623   0.770  -1.72164   3.61192   6.88595   2.07980   0.00000   7.797E-01   0.000E+00   2.203E-01
 400  8.07875440   0.770  -1.72610   3.61192   6.88798   2.08649   0.00000   8.215E-01   0.000E+00   1.785E-01
 401  8.11128684   0.770  -1.73055   3.61192   6.89002   2.09318   0.00000   8.632E-01   0.000E+00   1.368E-01
 402  8.14155122   0.770  -1.73295   3.61192   6.89112   2.09677   0.00000   8.874E-01   0.000E+00   1.125E-01
 403  8.16984329   0.770  -1.73487   3.61193   6.89200   2.09966   0.00000   9.076E-01   0.000E+00   9.233E-02
 404  8.19640445   0.770  -1.73680   3.61193   6.89289   2.10254   0.00000   9.278E-01   0.000E+00   7.212E-02
 405  8.22143436   0.770  -1.73834   3.61193   6.89360   2.10485   0.00000   9.441E-01   0.000E+00   5.575E-02
 406  8.24509998   0.770  -1.73897   3.61193   6.89389   2.10581   0.00000   9.513E-01   0.000E+00   4.849E-02
 407  8.26754237   0.770  -1.73960   3.61193   6.89419   2.10676   0.00000   9.585E-01   0.000E+00   4.123E-02
 408  8.28888181   0.770  -1.74024   3.61194   6.89448   2.10772   0.00000   9.657E-01   0.000E+00   3.397E-02
 409  8.30922164   0.770  -1.74087   3.61194   6.89478   2.10867   0.00000   9.729E-01   0.000E+00   2.671E-02
 410  8.32865134   0.770  -1.74149   3.61194   6.89507   2.10961   0.00000   9.800E-01   0.000E+00   1.956E-02
 411  8.34724887   0.770  -1.74162   3.61194   6.89514   2.10981   0.00000   9.821E-01   0.000E+00   1.761E-02
 412  8.36508262   0.770  -1.74175   3.61194   6.89520   2.11001   0.00000   9.841E-01   0.000E+00   1.565E-02
 413  8.38221283   0.770  -1.74188   3.61194   6.89526   2.11020   0.00000   9.861E-01   0.000E+00   1.370E-02
 414  8.39869293   0.770  -1.74201   3.61194   6.89533   2.11040   0.00000   9.881E-01   0.000E+00   1.175E-02
 415  8.41457046   0.769  -1.74214   3.61194   6.89539   2.11059   0.00000   9.901E-01   0.000E+00   9.795E-03
 416  8.42988793   0.769  -1.74227   3.61194   6.89546   2.11079   0.00000   9.922E-01   0.000E+00   7.842E-03
 417  8.44468351   0.769  -1.74240   3.61194   6.89552   2.11098   0.00000   9.942E-01   0.000E+00   5.889E-03
 418  8.45899159   0.769  -1.74252   3.61194   6.89558   2.11116   0.00000   9.960E-01   0.000E+00   4.097E-03
 419  8.47284329   0.769  -1.74249   3.61194   6.89557   2.11112   0.00000   9.965E-01   0.000E+00   3.683E-03
 420  8.48626681   0.769  -1.74246   3.61194   6.89557   2.11109   0.00000   9.969E-01   0.000E+00   3.270E-03
 421  8.49928783   0.769  -1.74244   3.61195   6.89556   2.11105   0.00000   9.973E-01   0.000E+00   2.857E-03
 422  8.51192979   0.769  -1.74241   3.61195   6.89556   2.11102   0.00000   9.977E-01   0.000E+00   2.443E-03
 423  8.52421415   0.769  -1.74238   3.61195   6.89555   2.11098   0.00000   9.981E-01   0.000E+00   2.030E-03
 424  8.53616056   0.769  -1.74236   3.61195   6.89555   2.11095   0.00000   9.986E-01   0.000E+00   1.616E-03
 425  8.54778714   0.769  -1.74233   3.61195   6.89554   2.11091   0.00000   9.990E-01   0.000E+00   1.203E-03
 426  8.55911056   0.769  -1.74230   3.61195   6.89554   2.11088   0.00000   9.994E-01   0.000E+00   7.896E-04
 427  8.57014623   0.769  -1.74227   3.61196   6.89553   2.11085   0.00000   9.998E-01   0.000E+00   3.762E-04
 428  8.58090841   0.769  -1.74225   3.61196   6.89553   2.11081   0.00000   1.000E+00   0.000E+00  -3.722E-05
 429  8.59141033   0.769  -1.74222   3.61196   6.89552   2.11078   0.00000   1.001E+00   0.000E+00  -4.506E-04
 430  8.60166429   0.769  -1.74218   3.61196   6.89551   2.11072   0.00000   1.001E+00   0.000E+00  -7.905E-04
 431  8.61168171   0.769  -1.74210   3.61196   6.89548   2.11060   0.00000   1.001E+00   0.000E+00  -8.871E-04
 432  8.62147327   0.769  -1.74202   3.61196   6.89545   2.11048   0.00000   1.001E+00   0.000E+00  -9.838E-04
 433  8.63104894   0.769  -1.74194   3.61196   6.89542   2.11036   0.00000   1.001E+00   0.000E+00  -1.081E-03
 434  8.64041801   0.769  -1.74186   3.61196   6.89539   2.11024   0.00000   1.001E+00   0.000E+00  -1.177E-03
 435  8.64958923   0.769  -1.74177   3.61197   6.89536   2.11012   0.00000   1.001E+00   0.000E+00  -1.274E-03
 436  8.65857078   0.769  -1.74169   3.61197   6.89532   2.11000   0.00000   1.001E+00   0.000E+00  -1.371E-03
 437  8.66737033   0.769  -1.74161   3.61197   6.89529   2.10988   0.00000   1.001E+00   0.000E+00  -1.467E-03
 438  8.67599513   0.769  -1.74153   3.61197   6.89526   2.10976   0.00000   1.001E+00   0.000E+00  -1.564E-03
 439  8.68445197   0.769  -1.74145   3.61197   6.89523   2.10964   0.00000   1.002E+00   0.000E+00  -1.661E-03
 440  8.69274728   0.769  -1.74137   3.61197   6.89520   2.10952   0.00000   1.002E+00   0.000E+00  -1.757E-03
 441  8.70088711   0.769  -1.74129   3.61197   6.89517   2.10940   0.00000   1.002E+00   0.000E+00  -1.854E-03
 442  8.70887717   0.769  -1.74120   3.61197   6.89514   2.10928   0.00000   1.002E+00   0.000E+00  -1.951E-03
 443  8.71672289   0.769  -1.74112   3.61197   6.89510   2.10916   0.00000   1.002E+00   0.000E+00  -2.047E-03
 444  8.72442939   0.769  -1.74104   3.61198   6.89507   2.10904   0.00000   1.002E+00   0.000E+00  -2.144E-03
 445  8.73200151   0.769  -1.74096   3.61198   6.89504   2.10892   0.00000   1.002E+00   0.000E+00  -2.241E-03
 446  8.73944387   0.769  -1.74088   3.61198   6.89501   2.10880   0.00000   1.002E+00   0.000E+00  -2.338E-03
 447  8.74676084   0.769  -1.74080   3.61198   6.89498   2.10868   0.00000   1.002E+00   0.000E+00  -2.434E-03
 448  8.75395658   0.769  -1.74070   3.61198   6.89494   2.10854   0.00000   1.002E+00   0.000E+00  -2.508E-03
 449  8.76103503   0.769  -1.74059   3.61198   6.89490   2.10838   0.00000   1.002E+00   0.000E+00  -2.550E-03
 450  8.76799995   0.769  -1.74048   3.61198   6.89486   2.10822   0.00000   1.002E+00   0.000E+00  -2.592E-03
 451  8.77485494   0.769  -1.74037   3.61198   6.89481   2.10806   0.00000   1.002E+00   0.000E+00  -2.634E-03
 452  8.78160341   0.769  -1.74026   3.61198   6.89477   2.10790   0.00000   1.002E+00   0.000E+00  -2.676E-03
 453  8.78824862   0.769  -1.74015   3.61199   6.89473   2.10775   0.00000   1.002E+00   0.000E+00  -2.718E-03
 454  8.79479367   0.769  -1.74004   3.61199   6.89469   2.10759   0.00000   1.002E+00   0.000E+00  -2.760E-03
 455  8.80124156   0.769  -1.73993   3.61199   6.89465   2.10743   0.00000   1.002E+00   0.000E+00  -2.802E-03
 456  8.80759511   0.769  -1.73982   3.61199   6.89460   2.10727   0.00000   1.002E+00   0.000E+00  -2.843E-03
 457  8.81385705   0.769  -1.73970   3.61199   6.89456   2.10711   0.00000   1.002E+00   0.000E+00  -2.885E-03
 458  8.82002998   0.769  -1.73959   3.61199   6.89452   2.10695   0.00000   1.002E+00   0.000E+00  -2.927E-03
 459  8.82611640   0.769  -1.73948   3.61199   6.89448   2.10679   0.00000   1.003E+00   0.000E+00  -2.969E-03
 460  8.83211870   0.769  -1.73937   3.61199   6.89443   2.10663   0.00000   1.003E+00   0.000E+00  -3.011E-03
 461  8.83803918   0.769  -1.73926   3.61199   6.89439   2.10647   0.00000   1.003E+00   0.000E+00  -3.053E-03
 462  8.84388002   0.769  -1.73915   3.61199   6.89435   2.10631   0.00000   1.003E+00   0.000E+00  -3.095E-03
 463  8.84964336   0.769  -1.73904   3.61199   6.89431   2.10615   0.00000   1.003E+00   0.000E+00  -3.137E-03
 464  8.85533121   0.769  -1.73893   3.61200   6.89426   2.10599   0.00000   1.003E+00   0.000E+00  -3.179E-03
 465  8.86094553   0.769  -1.73882   3.61200   6.89422   2.10583   0.00000   1.003E+00   0.000E+00  -3.221E-03
 466  8.86648820   0.769  -1.73871   3.61200   6.89418   2.10567   0.00000   1.003E+00   0.000E+00  -3.263E-03
 467  8.87196102   0.769  -1.73859   3.61200   6.89414   2.10551   0.00000   1.003E+00   0.000E+00  -3.305E-03
 468  8.87736573   0.769  -1.73848   3.61200   6.89409   2.10535   0.00000   1.003E+00   0.000E+00  -3.347E-03
 469  8.88270401   0.769  -1.73837   3.61200   6.89405   2.10519   0.00000   1.003E+00   0.000E+00  -3.389E-03
 470  8.88797747   0.769  -1.73825   3.61200   6.89400   2.10501   0.00000   1.003E+00   0.000E+00  -3.414E-03
 471  8.89318766   0.769  -1.73812   3.61200   6.89395   2.10482   0.00000   1.003E+00   0.000E+00  -3.438E-03
 472  8.89833608   0.769  -1.73799   3.61200   6.89390   2.10464   0.00000   1.003E+00   0.000E+00  -3.462E-03
 473  8.90342419   0.769  -1.73786   3.61200   6.89385   2.10445   0.00000   1.003E+00   0.000E+00  -3.486E-03
 474  8.90845337   0.769  -1.73773   3.61200   6.89380   2.10427   0.00000   1.003E+00   0.000E+00  -3.511E-03
 475  8.91342498   0.769  -1.73761   3.61201   6.89375   2.10408   0.00000   1.003E+00   0.000E+00  -3.535E-03
 476  8.91834032   0.769  -1.73748   3.61201   6.89370   2.10390   0.00000   1.003E+00   0.000E+00  -3.559E-03
 477  8.92320066   0.769  -1.73735   3.61201   6.89364   2.10371   0.00000   1.003E+00   0.000E+00  -3.583E-03
 478  8.92800720   0.769  -1.73722   3.61201   6.89359   2.10353   0.00000   1.003E+00   0.000E+00  -3.608E-03
 479  8.93276112   0.768  -1.73710   3.61201   6.89354   2.10334   0.00000   1.003E+00   0.000E+00  -3.632E-03
 480  8.93746357   0.768  -1.73697   3.61201   6.89349   2.10316   0.00000   1.004E+00   0.000E+00  -3.656E-03
 481  8.94211565   0.768  -1.73684   3.61201   6.89344   2.10297   0.00000   1.004E+00   0.000E+00  -3.680E-03
 482  8.94671843   0.768  -1.73671   3.61201   6.89339   2.10279   0.00000   1.004E+00   0.000E+00  -3.705E-03
 483  8.95127293   0.768  -1.73658   3.61201   6.89334   2.10260   0.00000   1.004E+00   0.000E+00  -3.729E-03
 484  8.95578016   0.768  -1.73646   3.61201   6.89329   2.10242   0.00000   1.004E+00   0.000E+00  -3.753E-03
 485  8.96024110   0.768  -1.73633   3.61201   6.89324   2.10223   0.00000   1.004E+00   0.000E+00  -3.777E-03
 486  8.96465668   0.768  -1.73620   3.61202   6.89319   2.10205   0.00000   1.004E+00   0.000E+00  -3.802E-03
 487  8.96902782   0.768  -1.73607   3.61202   6.89314   2.10186   0.00000   1.004E+00   0.000E+00  -3.826E-03
 488  8.97335541   0.768  -1.73595   3.61202   6.89309   2.10168   0.00000   1.004E+00   0.000E+00  -3.850E-03
 489  8.97764029   0.768  -1.73582   3.61202   6.89303   2.10149   0.00000   1.004E+00   0.000E+00  -3.874E-03
 490  8.98188331   0.768  -1.73569   3.61202   6.89298   2.10131   0.00000   1.004E+00   0.000E+00  -3.899E-03
 491  8.98608528   0.768  -1.73556   3.61202   6.89293   2.10112   0.00000   1.004E+00   0.000E+00  -3.914E-03
 492  8.99024698   0.768  -1.73542   3.61202   6.89288   2.10092   0.00000   1.004E+00   0.000E+00  -3.922E-03
 493  8.99436918   0.768  -1.73529   3.61202   6.89282   2.10073   0.00000   1.004E+00   0.000E+00  -3.930E-03
 494  8.99845262   0.768  -1.73515   3.61202   6.89277   2.10053   0.00000   1.004E+00   0.000E+00  -3.938E-03
 495  9.00249802   0.768  -1.73502   3.61202   6.89272   2.10034   0.00000   1.004E+00   0.000E+00  -3.946E-03
 496  9.00650609   0.768  -1.73489   3.61203   6.89266   2.10014   0.00000   1.004E+00   0.000E+00  -3.954E-03
 497  9.01047751   0.768  -1.73475   3.61203   6.89261   2.09994   0.00000   1.004E+00   0.000E+00  -3.962E-03
 498  9.01441294   0.768  -1.73462   3.61203   6.89256   2.09975   0.00000   1.004E+00   0.000E+00  -3.970E-03
 499  9.01831302   0.768  -1.73448   3.61203   6.89250   2.09955   0.00000   1.004E+00   0.000E+00  -3.978E-03
 500  9.02217840   0.768  -1.73435   3.61203   6.89245   2.09936   0.00000   1.004E+00   0.000E+00  -3.986E-03
 501  9.02600967   0.768  -1.73421   3.61203   6.89240   2.09916   0.00000   1.004E+00   0.000E+00  -3.993E-03
 502  9.02980744   0.768  -1.73408   3.61203   6.89234   2.09897   0.00000   1.004E+00   0.000E+00  -4.001E-03
 503  9.03357229   0.768  -1.73394   3.61203   6.89229   2.09877   0.00000   1.004E+00   0.000E+00  -4.009E-03
 504  9.03730479   0.768  -1.73381   3.61203   6.89223   2.09858   0.00000   1.004E+00   0.000E+00  -4.017E-03
 505  9.04100547   0.768  -1.73367   3.61203   6.89218   2.09838   0.00000   1.004E+00   0.000E+00  -4.025E-03
 506  9.04467489   0.768  -1.73354   3.61203   6.89213   2.09819   0.00000   1.004E+00   0.000E+00  -4.033E-03
 507  9.04831356   0.768  -1.73340   3.61204   6.89207   2.09799   0.00000   1.004E+00   0.000E+00  -4.041E-03
 508  9.05192201   0.768  -1.73327   3.61204   6.89202   2.09780   0.00000   1.004E+00   0.000E+00  -4.049E-03
 509  9.05550071   0.768  -1.73313   3.61204   6.89197   2.09760   0.00000   1.004E+00   0.000E+00  -4.057E-03
 510  9.05905017   0.768  -1.73300   3.61204   6.89191   2.09740   0.00000   1.004E+00   0.000E+00  -4.065E-03
 511  9.06257086   0.768  -1.73286   3.61204   6.89186   2.09721   0.00000   1.004E+00   0.000E+00  -4.073E-03
 512  9.06606323   0.768  -1.73273   3.61204   6.89181   2.09701   0.00000   1.004E+00   0.000E+00  -4.080E-03
 513  9.06952774   0.768  -1.73259   3.61204   6.89175   2.09682   0.00000   1.004E+00   0.000E+00  -4.077E-03
 514  9.07296483   0.768  -1.73246   3.61204   6.89170   2.09662   0.00000   1.004E+00   0.000E+00  -4.075E-03
 515  9.07637494   0.768  -1.73233   3.61204   6.89164   2.09643   0.00000   1.004E+00   0.000E+00  -4.073E-03
 516  9.07975847   0.768  -1.73219   3.61204   6.89159   2.09623   0.00000   1.004E+00   0.000E+00  -4.070E-03
 517  9.08311585   0.768  -1.73206   3.61204   6.89153   2.09603   0.00000   1.004E+00   0.000E+00  -4.068E-03
 518  9.08644748   0.768  -1.73192   3.61205   6.89148   2.09584   0.00000   1.004E+00   0.000E+00  -4.066E-03
 519  9.08975374   0.768  -1.73179   3.61205   6.89142   2.09564   0.00000   1.004E+00   0.000E+00  -4.063E-03
 520  9.09303502   0.768  -1.73165   3.61205   6.89137   2.09545   0.00000   1.004E+00   0.000E+00  -4.061E-03
 521  9.09629169   0.768  -1.73152   3.61205   6.89131   2.09525   0.00000   1.004E+00   0.000E+00  -4.059E-03
 522  9.09952413   0.768  -1.73139   3.61205   6.89126   2.09506   0.00000   1.004E+00   0.000E+00  -4.056E-03
 523  9.10273268   0.768  -1.73125   3.61205   6.89121   2.09486   0.00000   1.004E+00   0.000E+00  -4.054E-03
 524  9.10591771   0.768  -1.73112   3.61205   6.89115   2.09466   0.00000   1.004E+00   0.000E+00  -4.052E-03
 525  9.10907954   0.768  -1.73098   3.61205   6.89110   2.09447   0.00000   1.004E+00   0.000E+00  -4.050E-03
 526  9.11221852   0.768  -1.73085   3.61205   6.89104   2.09427   0.00000   1.004E+00   0.000E+00  -4.047E-03
 527  9.11533498   0.768  -1.73071   3.61205   6.89099   2.09408   0.00000   1.004E+00   0.000E+00  -4.045E-03
 528  9.11842923   0.768  -1.73058   3.61205   6.89093   2.09388   0.00000   1.004E+00   0.000E+00  -4.043E-03
 529  9.12150159   0.768  -1.73045   3.61206   6.89088   2.09369   0.00000   1.004E+00   0.000E+00  -4.040E-03
 530  9.12455237   0.768  -1.73031   3.61206   6.89082   2.09349   0.00000   1.004E+00   0.000E+00  -4.038E-03
 531  9.12758187   0.768  -1.73018   3.61206   6.89077   2.09329   0.00000   1.004E+00   0.000E+00  -4.036E-03
 532  9.13059038   0.768  -1.73004   3.61206   6.89071   2.09310   0.00000   1.004E+00   0.000E+00  -4.033E-03
 533  9.13357820   0.768  -1.72991   3.61206   6.89066   2.09290   0.00000   1.004E+00   0.000E+00  -4.031E-03
 534  9.13654560   0.768  -1.72978   3.61206   6.89061   2.09271   0.00000   1.004E+00   0.000E+00  -4.025E-03
 535  9.13949286   0.768  -1.72965   3.61206   6.89055   2.09252   0.00000   1.004E+00   0.000E+00  -4.017E-03
 536  9.14242025   0.768  -1.72952   3.61206   6.89050   2.09233   0.00000   1.004E+00   0.000E+00  -4.009E-03
 537  9.14532805   0.768  -1.72939   3.61206   6.89045   2.09214   0.00000   1.004E+00   0.000E+00  -4.001E-03
 538  9.14821650   0.768  -1.72926   3.61206   6.89040   2.09195   0.00000   1.004E+00   0.000E+00  -3.993E-03
 539  9.15108587   0.768  -1.72913   3.61206   6.89035   2.09176   0.00000   1.004E+00   0.000E+00  -3.985E-03
 540  9.15393641   0.768  -1.72900   3.61206   6.89029   2.09157   0.00000   1.004E+00   0.000E+00  -3.977E-03
 541  9.15676836   0.768  -1.72887   3.61206   6.89024   2.09138   0.00000   1.004E+00   0.000E+00  -3.969E-03
 542  9.15958196   0.768  -1.72874   3.61206   6.89019   2.09120   0.00000   1.004E+00   0.000E+00  -3.962E-03
 543  9.16237746   0.768  -1.72861   3.61206   6.89014   2.09101   0.00000   1.004E+00   0.000E+00  -3.954E-03
 544  9.16515507   0.768  -1.72848   3.61206   6.89008   2.09082   0.00000   1.004E+00   0.000E+00  -3.946E-03
 545  9.16791503   0.768  -1.72835   3.61207   6.89003   2.09063   0.00000   1.004E+00   0.000E+00  -3.938E-03
 546  9.17065756   0.768  -1.72822   3.61207   6.88998   2.09044   0.00000   1.004E+00   0.000E+00  -3.930E-03
 547  9.17338288   0.767  -1.72809   3.61207   6.88993   2.09025   0.00000   1.004E+00   0.000E+00  -3.922E-03
 548  9.17609121   0.767  -1.72796   3.61207   6.88988   2.09006   0.00000   1.004E+00   0.000E+00  -3.914E-03
 549  9.17878275   0.767  -1.72783   3.61207   6.88982   2.08987   0.00000   1.004E+00   0.000E+00  -3.906E-03
 550  9.18145772   0.767  -1.72770   3.61207   6.88977   2.08968   0.00000   1.004E+00   0.000E+00  -3.898E-03
 551  9.18411630   0.767  -1.72757   3.61207   6.88972   2.08949   0.00000   1.004E+00   0.000E+00  -3.890E-03
 552  9.18675872   0.767  -1.72744   3.61207   6.88967   2.08930   0.00000   1.004E+00   0.000E+00  -3.882E-03
 553  9.18938515   0.767  -1.72732   3.61207   6.88961   2.08911   0.00000   1.004E+00   0.000E+00  -3.874E-03
 554  9.19199579   0.767  -1.72719   3.61207   6.88956   2.08892   0.00000   1.004E+00   0.000E+00  -3.866E-03
 555  9.19459084   0.767  -1.72706   3.61207   6.88951   2.08874   0.00000   1.004E+00   0.000E+00  -3.858E-03
 556  9.19717047   0.767  -1.72693   3.61207   6.88946   2.08856   0.00000   1.004E+00   0.000E+00  -3.847E-03
 557  9.19973486   0.767  -1.72681   3.61207   6.88941   2.08838   0.00000   1.004E+00   0.000E+00  -3.837E-03
 558  9.20228421   0.767  -1.72669   3.61207   6.88936   2.08820   0.00000   1.004E+00   0.000E+00  -3.826E-03
 559  9.20481868   0.767  -1.72656   3.61207   6.88931   2.08802   0.00000   1.004E+00   0.000E+00  -3.815E-03
 560  9.20733844   0.767  -1.72644   3.61207   6.88926   2.08784   0.00000   1.004E+00   0.000E+00  -3.804E-03
 561  9.20984366   0.767  -1.72632   3.61208   6.88921   2.08766   0.00000   1.004E+00   0.000E+00  -3.794E-03
 562  9.21233452   0.767  -1.72620   3.61208   6.88916   2.08748   0.00000   1.004E+00   0.000E+00  -3.783E-03
 563  9.21481118   0.767  -1.72607   3.61208   6.88911   2.08730   0.00000   1.004E+00   0.000E+00  -3.772E-03
 564  9.21727379   0.767  -1.72595   3.61208   6.88906   2.08712   0.00000   1.004E+00   0.000E+00  -3.761E-03
 565  9.21972251   0.767  -1.72583   3.61208   6.88901   2.08694   0.00000   1.004E+00   0.000E+00  -3.751E-03
 566  9.22215751   0.767  -1.72570   3.61208   6.88896   2.08676   0.00000   1.004E+00   0.000E+00  -3.740E-03
 567  9.22457893   0.767  -1.72558   3.61208   6.88891   2.08658   0.00000   1.004E+00   0.000E+00  -3.729E-03
 568  9.22698692   0.767  -1.72546   3.61208   6.88886   2.08640   0.00000   1.004E+00   0.000E+00  -3.719E-03
 569  9.22938163   0.767  -1.72533   3.61208   6.88881   2.08622   0.00000   1.004E+00   0.000E+00  -3.708E-03
 570  9.23176322   0.767  -1.72521   3.61208   6.88876   2.08604   0.00000   1.004E+00   0.000E+00  -3.697E-03
 571  9.23413181   0.767  -1.72509   3.61209   6.88871   2.08586   0.00000   1.004E+00   0.000E+00  -3.686E-03
 572  9.23648756   0.767  -1.72496   3.61209   6.88866   2.08568   0.00000   1.004E+00   0.000E+00  -3.676E-03
 573  9.23883060   0.767  -1.72484   3.61209   6.88861   2.08550   0.00000   1.004E+00   0.000E+00  -3.665E-03
 574  9.24116106   0.767  -1.72472   3.61209   6.88856   2.08532   0.00000   1.004E+00   0.000E+00  -3.654E-03
 575  9.24347908   0.767  -1.72460   3.61209   6.88851   2.08514   0.00000   1.004E+00   0.000E+00  -3.644E-03
 576  9.24578480   0.767  -1.72447   3.61209   6.88846   2.08496   0.00000   1.004E+00   0.000E+00  -3.633E-03
 577  9.24807834   0.767  -1.72435   3.61209   6.88842   2.08479   0.00000   1.004E+00   0.000E+00  -3.621E-03
 578  9.25035984   0.767  -1.72424   3.61209   6.88837   2.08462   0.00000   1.004E+00   0.000E+00  -3.609E-03
 579  9.25262941   0.767  -1.72412   3.61209   6.88832   2.08445   0.00000   1.004E+00   0.000E+00  -3.597E-03
 580  9.25488718   0.767  -1.72401   3.61209   6.88828   2.08428   0.00000   1.004E+00   0.000E+00  -3.585E-03
 581  9.25713327   0.767  -1.72389   3.61209   6.88823   2.08411   0.00000   1.004E+00   0.000E+00  -3.573E-03
 582  9.25936781   0.767  -1.72378   3.61210   6.88819   2.08395   0.00000   1.004E+00   0.000E+00  -3.560E-03
 583  9.26159091   0.767  -1.72366   3.61210   6.88814   2.08378   0.00000   1.004E+00   0.000E+00  -3.548E-03
 584  9.26380269   0.767  -1.72355   3.61210   6.88809   2.08361   0.00000   1.004E+00   0.000E+00  -3.536E-03
 585  9.26600326   0.767  -1.72343   3.61210   6.88805   2.08344   0.00000   1.004E+00   0.000E+00  -3.524E-03
 586  9.26819273   0.767  -1.72331   3.61210   6.88800   2.08328   0.00000   1.004E+00   0.000E+00  -3.512E-03
 587  9.27037123   0.767  -1.72320   3.61210   6.88795   2.08311   0.00000   1.003E+00   0.000E+00  -3.500E-03
 588  9.27253885   0.767  -1.72308   3.61210   6.88791   2.08294   0.00000   1.003E+00   0.000E+00  -3.488E-03
 589  9.27469570   0.767  -1.72297   3.61210   6.88786   2.08277   0.00000   1.003E+00   0.000E+00  -3.476E-03
 590  9.27684190   0.767  -1.72285   3.61210   6.88782   2.08260   0.00000   1.003E+00   0.000E+00  -3.463E-03
 591  9.27897754   0.767  -1.72274   3.61210   6.88777   2.08244   0.00000   1.003E+00   0.000E+00  -3.451E-03
 592  9.28110274   0.767  -1.72262   3.61210   6.88772   2.08227   0.00000   1.003E+00   0.000E+00  -3.439E-03
 593  9.28321758   0.767  -1.72250   3.61211   6.88768   2.08210   0.00000   1.003E+00   0.000E+00  -3.427E-03
 594  9.28532217   0.767  -1.72239   3.61211   6.88763   2.08193   0.00000   1.003E+00   0.000E+00  -3.415E-03
 595  9.28741662   0.767  -1.72227   3.61211   6.88759   2.08176   0.00000   1.003E+00   0.000E+00  -3.403E-03
 596  9.28950101   0.767  -1.72216   3.61211   6.88754   2.08160   0.00000   1.003E+00   0.000E+00  -3.391E-03
 597  9.29157545   0.767  -1.72204   3.61211   6.88749   2.08143   0.00000   1.003E+00   0.000E+00  -3.379E-03
 598  9.29364002   0.767  -1.72193   3.61211   6.88745   2.08126   0.00000   1.003E+00   0.000E+00  -3.367E-03
 599  9.29569483   0.767  -1.72182   3.61211   6.88740   2.08111   0.00000   1.003E+00   0.000E+00  -3.355E-03
 600  9.29773996   0.767  -1.72171   3.61211   6.88736   2.08095   0.00000   1.003E+00   0.000E+00  -3.343E-03
 601  9.29977550   0.767  -1.72160   3.61211   6.88732   2.08079   0.00000   1.003E+00   0.000E+00  -3.332E-03
 602  9.30180155   0.767  -1.72150   3.61211   6.88727   2.08064   0.00000   1.003E+00   0.000E+00  -3.320E-03
 603  9.30381819   0.767  -1.72139   3.61211   6.88723   2.08048   0.00000   1.003E+00   0.000E+00  -3.308E-03
 604  9.30582551   0.767  -1.72128   3.61212   6.88719   2.08032   0.00000   1.003E+00   0.000E+00  -3.297E-03
 605  9.30782359   0.767  -1.72117   3.61212   6.88714   2.08016   0.00000   1.003E+00   0.000E+00  -3.285E-03
 606  9.30981253   0.767  -1.72106   3.61212   6.88710   2.08001   0.00000   1.003E+00   0.000E+00  -3.273E-03
 607  9.31179239   0.767  -1.72095   3.61212   6.88706   2.07985   0.00000   1.003E+00   0.000E+00  -3.262E-03
 608  9.31376328   0.767  -1.72085   3.61212   6.88701   2.07969   0.00000   1.003E+00   0.000E+00  -3.250E-03
 609  9.31572525   0.767  -1.72074   3.61212   6.88697   2.07954   0.00000   1.003E+00   0.000E+00  -3.238E-03
 610  9.31767841   0.767  -1.72063   3.61212   6.88693   2.07938   0.00000   1.003E+00   0.000E+00  -3.227E-03
 611  9.31962282   0.767  -1.72052   3.61212   6.88688   2.07922   0.00000   1.003E+00   0.000E+00  -3.215E-03
 612  9.32155856   0.767  -1.72041   3.61212   6.88684   2.07906   0.00000   1.003E+00   0.000E+00  -3.203E-03
 613  9.32348571   0.767  -1.72031   3.61212   6.88680   2.07891   0.00000   1.003E+00   0.000E+00  -3.192E-03
 614  9.32540435   0.767  -1.72020   3.61213   6.88675   2.07875   0.00000   1.003E+00   0.000E+00  -3.180E-03
 615  9.32731455   0.767  -1.72009   3.61213   6.88671   2.07859   0.00000   1.003E+00   0.000E+00  -3.168E-03
 616  9.32921639   0.767  -1.71998   3.61213   6.88667   2.07844   0.00000   1.003E+00   0.000E+00  -3.157E-03
 617  9.33110993   0.767  -1.71987   3.61213   6.88662   2.07828   0.00000   1.003E+00   0.000E+00  -3.145E-03
 618  9.33299525   0.767  -1.71977   3.61213   6.88658   2.07812   0.00000   1.003E+00   0.000E+00  -3.133E-03
 619  9.33487243   0.767  -1.71966   3.61213   6.88654   2.07796   0.00000   1.003E+00   0.000E+00  -3.122E-03
 620  9.33674152   0.767  -1.71956   3.61213   6.88650   2.07782   0.00000   1.003E+00   0.000E+00  -3.111E-03
 621  9.33860261   0.767  -1.71945   3.61213   6.88646   2.07767   0.00000   1.003E+00   0.000E+00  -3.099E-03
 622  9.34045575   0.767  -1.71935   3.61213   6.88642   2.07753   0.00000   1.003E+00   0.000E+00  -3.088E-03
 623  9.34230102   0.767  -1.71925   3.61213   6.88638   2.07738   0.00000   1.003E+00   0.000E+00  -3.077E-03
 624  9.34413849   0.767  -1.71915   3.61213   6.88634   2.07724   0.00000   1.003E+00   0.000E+00  -3.066E-03
 625  9.34596821   0.767  -1.71905   3.61213   6.88630   2.07709   0.00000   1.003E+00   0.000E+00  -3.055E-03
 626  9.34779025   0.766  -1.71895   3.61213   6.88626   2.07694   0.00000   1.003E+00   0.000E+00  -3.043E-03
 627  9.34960469   0.766  -1.71885   3.61213   6.88622   2.07680   0.00000   1.003E+00   0.000E+00  -3.032E-03
 628  9.35141157   0.766  -1.71875   3.61213   6.88618   2.07665   0.00000   1.003E+00   0.000E+00  -3.021E-03
 629  9.35321097   0.766  -1.71865   3.61213   6.88614   2.07651   0.00000   1.003E+00   0.000E+00  -3.010E-03
 630  9.35500294   0.766  -1.71855   3.61214   6.88610   2.07636   0.00000   1.003E+00   0.000E+00  -2.999E-03
 631  9.35678755   0.766  -1.71845   3.61214   6.88606   2.07622   0.00000   1.003E+00   0.000E+00  -2.987E-03
 632  9.35856486   0.766  -1.71835   3.61214   6.88602   2.07607   0.00000   1.003E+00   0.000E+00  -2.976E-03
 633  9.36033492   0.766  -1.71825   3.61214   6.88598   2.07593   0.00000   1.003E+00   0.000E+00  -2.965E-03
 634  9.36209780   0.766  -1.71815   3.61214   6.88594   2.07578   0.00000   1.003E+00   0.000E+00  -2.954E-03
 635  9.36385355   0.766  -1.71804   3.61214   6.88590   2.07564   0.00000   1.003E+00   0.000E+00  -2.943E-03
 636  9.36560223   0.766  -1.71794   3.61214   6.88586   2.07549   0.00000   1.003E+00   0.000E+00  -2.932E-03
 637  9.36734390   0.766  -1.71784   3.61214   6.88582   2.07534   0.00000   1.003E+00   0.000E+00  -2.920E-03
 638  9.36907861   0.766  -1.71774   3.61214   6.88578   2.07520   0.00000   1.003E+00   0.000E+00  -2.909E-03
 639  9.37080642   0.766  -1.71764   3.61214   6.88574   2.07505   0.00000   1.003E+00   0.000E+00  -2.898E-03
 640  9.37252738   0.766  -1.71754   3.61214   6.88570   2.07491   0.00000   1.003E+00   0.000E+00  -2.887E-03
 641  9.37424155   0.766  -1.71744   3.61214   6.88567   2.07477   0.00000   1.003E+00   0.000E+00  -2.876E-03
 642  9.37594898   0.766  -1.71735   3.61214   6.88563   2.07463   0.00000   1.003E+00   0.000E+00  -2.866E-03
 643  9.37764973   0.766  -1.71726   3.61214   6.88559   2.07449   0.00000   1.003E+00   0.000E+00  -2.855E-03
 644  9.37934384   0.766  -1.71716   3.61214   6.88555   2.07436   0.00000   1.003E+00   0.000E+00  -2.845E-03
 645  9.38103136   0.766  -1.71707   3.61214   6.88552   2.07422   0.00000   1.003E+00   0.000E+00  -2.835E-03
 646  9.38271236   0.766  -1.71697   3.61215   6.88548   2.07409   0.00000   1.003E+00   0.000E+00  -2.825E-03
 647  9.38438687   0.766  -1.71688   3.61215   6.88544   2.07395   0.00000   1.003E+00   0.000E+00  -2.814E-03
 648  9.38605496   0.766  -1.71679   3.61215   6.88540   2.07382   0.00000   1.003E+00   0.000E+00  -2.804E-03
 649  9.38771666   0.766  -1.71669   3.61215   6.88537   2.07368   0.00000   1.003E+00   0.000E+00  -2.794E-03
 650  9.38937202   0.766  -1.71660   3.61215   6.88533   2.07355   0.00000   1.003E+00   0.000E+00  -2.784E-03
 651  9.39102110   0.766  -1.71651   3.61215   6.88529   2.07341   0.00000   1.003E+00   0.000E+00  -2.773E-03
 652  9.39266395   0.766  -1.71641   3.61215   6.88525   2.07327   0.00000   1.003E+00   0.000E+00  -2.763E-03
 653  9.39430060   0.766  -1.71632   3.61215   6.88522   2.07314   0.00000   1.003E+00   0.000E+00  -2.753E-03
 654  9.39593110   0.766  -1.71622   3.61215   6.88518   2.07300   0.00000   1.003E+00   0.000E+00  -2.743E-03
 655  9.39755551   0.766  -1.71613   3.61215   6.88514   2.07287   0.00000   1.003E+00   0.000E+00  -2.732E-03
 656  9.39917387   0.766  -1.71604   3.61215   6.88511   2.07273   0.00000   1.003E+00   0.000E+00  -2.722E-03
 657  9.40078621   0.766  -1.71594   3.61216   6.88507   2.07260   0.00000   1.003E+00   0.000E+00  -2.712E-03
 658  9.40239260   0.766  -1.71585   3.61216   6.88503   2.07246   0.00000   1.003E+00   0.000E+00  -2.702E-03
 659  9.40399306   0.766  -1.71576   3.61216   6.88499   2.07232   0.00000   1.003E+00   0.000E+00  -2.691E-03
 660  9.40558765   0.766  -1.71566   3.61216   6.88496   2.07219   0.00000   1.003E+00   0.000E+00  -2.681E-03
 661  9.40717640   0.766  -1.71557   3.61216   6.88492   2.07205   0.00000   1.003E+00   0.000E+00  -2.671E-03
 662  9.40875936   0.766  -1.71547   3.61216   6.88488   2.07192   0.00000   1.003E+00   0.000E+00  -2.661E-03
 663  9.41033658   0.766  -1.71539   3.61216   6.88485   2.07179   0.00000   1.003E+00   0.000E+00  -2.651E-03
 664  9.41190808   0.766  -1.71530   3.61216   6.88481   2.07166   0.00000   1.003E+00   0.000E+00  -2.642E-03
 665  9.41347392   0.766  -1.71521   3.61216   6.88478   2.07154   0.00000   1.003E+00   0.000E+00  -2.633E-03
 666  9.41503414   0.766  -1.71513   3.61216   6.88475   2.07141   0.00000   1.003E+00   0.000E+00  -2.623E-03
 667  9.41658877   0.766  -1.71504   3.61216   6.88471   2.07129   0.00000   1.003E+00   0.000E+00  -2.614E-03
 668  9.41813785   0.766  -1.71495   3.61216   6.88468   2.07116   0.00000   1.003E+00   0.000E+00  -2.605E-03
 669  9.41968143   0.766  -1.71486   3.61216   6.88464   2.07104   0.00000   1.003E+00   0.000E+00  -2.595E-03
 670  9.42121954   0.766  -1.71478   3.61216   6.88461   2.07091   0.00000   1.003E+00   0.000E+00  -2.586E-03
 671  9.42275223   0.766  -1.71469   3.61216   6.88458   2.07078   0.00000   1.003E+00   0.000E+00  -2.577E-03
 672  9.42427952   0.766  -1.71460   3.61216   6.88454   2.07066   0.00000   1.003E+00   0.000E+00  -2.567E-03
 673  9.42580146   0.766  -1.71452   3.61217   6.88451   2.07053   0.00000   1.002E+00   0.000E+00  -2.558E-03
 674  9.42731809   0.766  -1.71443   3.61217   6.88447   2.07041   0.00000   1.002E+00   0.000E+00  -2.549E-03
 675  9.42882944   0.766  -1.71434   3.61217   6.88444   2.07028   0.00000   1.002E+00   0.000E+00  -2.539E-03
 676  9.43033555   0.766  -1.71425   3.61217   6.88441   2.07015   0.00000   1.002E+00   0.000E+00  -2.530E-03
 677  9.43183645   0.766  -1.71417   3.61217   6.88437   2.07003   0.00000   1.002E+00   0.000E+00  -2.521E-03
 678  9.43333218   0.766  -1.71408   3.61217   6.88434   2.06990   0.00000   1.002E+00   0.000E+00  -2.511E-03
 679  9.43482278   0.766  -1.71399   3.61217   6.88430   2.06978   0.00000   1.002E+00   0.000E+00  -2.502E-03
 680  9.43630828   0.766  -1.71391   3.61217   6.88427   2.06965   0.00000   1.002E+00   0.000E+00  -2.493E-03
 681  9.43778872   0.766  -1.71382   3.61217   6.88424   2.06952   0.00000   1.002E+00   0.000E+00  -2.483E-03
 682  9.43926413   0.766  -1.71373   3.61217   6.88420   2.06940   0.00000   1.002E+00   0.000E+00  -2.474E-03
 683  9.44073454   0.766  -1.71364   3.61217   6.88417   2.06927   0.00000   1.002E+00   0.000E+00  -2.465E-03
 684  9.44219999   0.766  -1.71356   3.61217   6.88413   2.06915   0.00000   1.002E+00   0.000E+00  -2.456E-03
 685  9.44366051   0.766  -1.71348   3.61217   6.88410   2.06903   0.00000   1.002E+00   0.000E+00  -2.447E-03
 686  9.44511614   0.766  -1.71340   3.61217   6.88407   2.06892   0.00000   1.002E+00   0.000E+00  -2.438E-03
 687  9.44656691   0.766  -1.71332   3.61217   6.88404   2.06880   0.00000   1.002E+00   0.000E+00  -2.429E-03
 688  9.44801284   0.766  -1.71323   3.61217   6.88401   2.06868   0.00000   1.002E+00   0.000E+00  -2.420E-03
 689  9.44945398   0.766  -1.71315   3.61218   6.88398   2.06857   0.00000   1.002E+00   0.000E+00  -2.411E-03
 690  9.45089035   0.766  -1.71307   3.61218   6.88394   2.06845   0.00000   1.002E+00   0.000E+00  -2.402E-03
 691  9.45232198   0.766  -1.71299   3.61218   6.88391   2.06833   0.00000   1.002E+00   0.000E+00  -2.394E-03
 692  9.45374891   0.766  -1.71291   3.61218   6.88388   2.06822   0.00000   1.002E+00   0.000E+00  -2.385E-03
 693  9.45517117   0.766  -1.71283   3.61218   6.88385   2.06810   0.00000   1.002E+00   0.000E+00  -2.376E-03
 694  9.45658879   0.766  -1.71275   3.61218   6.88382   2.06798   0.00000   1.002E+00   0.000E+00  -2.367E-03
 695  9.45800179   0.766  -1.71267   3.61218   6.88379   2.06786   0.00000   1.002E+00   0.000E+00  -2.358E-03
 696  9.45941021   0.766  -1.71259   3.61218   6.88375   2.06775   0.00000   1.002E+00   0.000E+00  -2.349E-03
 697  9.46081408   0.766  -1.71250   3.61218   6.88372   2.06763   0.00000   1.002E+00   0.000E+00  -2.340E-03
 698  9.46221343   0.766  -1.71242   3.61218   6.88369   2.06751   0.00000   1.002E+00   0.000E+00  -2.332E-03
 699  9.46360828   0.766  -1.71234   3.61218   6.88366   2.06740   0.00000   1.002E+00   0.000E+00  -2.323E-03
 700  9.46499866   0.766  -1.71226   3.61219   6.88363   2.06728   0.00000   1.002E+00   0.000E+00  -2.314E-03
 701  9.46638461   0.766  -1.71218   3.61219   6.88360   2.06716   0.00000   1.002E+00   0.000E+00  -2.305E-03
 702  9.46776615   0.766  -1.71210   3.61219   6.88356   2.06704   0.00000   1.002E+00   0.000E+00  -2.296E-03
 703  9.46914331   0.766  -1.71202   3.61219   6.88353   2.06693   0.00000   1.002E+00   0.000E+00  -2.287E-03
 704  9.47051611   0.766  -1.71194   3.61219   6.88350   2.06681   0.00000   1.002E+00   0.000E+00  -2.278E-03
 705  9.47188459   0.766  -1.71186   3.61219   6.88347   2.06669   0.00000   1.002E+00   0.000E+00  -2.270E-03
 706  9.47324877   0.766  -1.71178   3.61219   6.88344   2.06659   0.00000   1.002E+00   0.000E+00  -2.262E-03
 707  9.47460868   0.766  -1.71170   3.61219   6.88341   2.06648   0.00000   1.002E+00   0.000E+00  -2.254E-03
 708  9.47596435   0.766  -1.71163   3.61219   6.88338   2.06637   0.00000   1.002E+00   0.000E+00  -2.246E-03
 709  9.47731579   0.766  -1.71155   3.61219   6.88335   2.06626   0.00000   1.002E+00   0.000E+00  -2.238E-03
 710  9.47866304   0.766  -1.71148   3.61219   6.88332   2.06615   0.00000   1.002E+00   0.000E+00  -2.230E-03
 711  9.48000613   0.766  -1.71140   3.61219   6.88329   2.06604   0.00000   1.002E+00   0.000E+00  -2.222E-03
 712  9.48134508   0.766  -1.71132   3.61219   6.88326   2.06593   0.00000   1.002E+00   0.000E+00  -2.214E-03
 713  9.48267991   0.766  -1.71125   3.61219   6.88323   2.06583   0.00000   1.002E+00   0.000E+00  -2.206E-03
 714  9.48401065   0.766  -1.71117   3.61219   6.88320   2.06572   0.00000   1.002E+00   0.000E+00  -2.198E-03
 715  9.48533732   0.765  -1.71110   3.61219   6.88317   2.06561   0.00000   1.002E+00   0.000E+00  -2.190E-03
 716  9.48665996   0.765  -1.71102   3.61220   6.88315   2.06550   0.00000   1.002E+00   0.000E+00  -2.182E-03
 717  9.48797857   0.765  -1.71094   3.61220   6.88312   2.06539   0.00000   1.002E+00   0.000E+00  -2.174E-03
 718  9.48929320   0.765  -1.71087   3.61220   6.88309   2.06528   0.00000   1.002E+00   0.000E+00  -2.167E-03
 719  9.49060386   0.765  -1.71079   3.61220   6.88306   2.06517   0.00000   1.002E+00   0.000E+00  -2.159E-03
 720  9.49191058   0.765  -1.71072   3.61220   6.88303   2.06506   0.00000   1.002E+00   0.000E+00  -2.151E-03
 721  9.49321337   0.765  -1.71064   3.61220   6.88300   2.06496   0.00000   1.002E+00   0.000E+00  -2.143E-03
 722  9.49451228   0.765  -1.71056   3.61220   6.88297   2.06485   0.00000   1.002E+00   0.000E+00  -2.135E-03
 723  9.49580730   0.765  -1.71049   3.61220   6.88294   2.06474   0.00000   1.002E+00   0.000E+00  -2.127E-03
 724  9.49709848   0.765  -1.71041   3.61220   6.88291   2.06463   0.00000   1.002E+00   0.000E+00  -2.119E-03
 725  9.49838583   0.765  -1.71034   3.61220   6.88288   2.06452   0.00000   1.002E+00   0.000E+00  -2.111E-03
 726  9.49966937   0.765  -1.71026   3.61220   6.88285   2.06441   0.00000   1.002E+00   0.000E+00  -2.103E-03
 727  9.50094913   0.765  -1.71019   3.61220   6.88282   2.06431   0.00000   1.002E+00   0.000E+00  -2.096E-03
 728  9.50222514   0.765  -1.71012   3.61220   6.88280   2.06421   0.00000   1.002E+00   0.000E+00  -2.089E-03
 729  9.50349740   0.765  -1.71005   3.61220   6.88277   2.06411   0.00000   1.002E+00   0.000E+00  -2.082E-03
 730  9.50476595   0.765  -1.70997   3.61220   6.88274   2.06400   0.00000   1.002E+00   0.000E+00  -2.075E-03
 731  9.50603080   0.765  -1.70990   3.61220   6.88271   2.06390   0.00000   1.002E+00   0.000E+00  -2.068E-03
 732  9.50729198   0.765  -1.70983   3.61220   6.88269   2.06380   0.00000   1.002E+00   0.000E+00  -2.061E-03
 733  9.50854951   0.765  -1.70976   3.61220   6.88266   2.06370   0.00000   1.002E+00   0.000E+00  -2.054E-03
 734  9.50980341   0.765  -1.70969   3.61220   6.88263   2.06360   0.00000   1.002E+00   0.000E+00  -2.047E-03
 735  9.51105370   0.765  -1.70962   3.61220   6.88260   2.06350   0.00000   1.002E+00   0.000E+00  -2.040E-03
 736  9.51230040   0.765  -1.70955   3.61220   6.88258   2.06339   0.00000   1.002E+00   0.000E+00  -2.033E-03
 737  9.51354353   0.765  -1.70948   3.61220   6.88255   2.06329   0.00000   1.002E+00   0.000E+00  -2.026E-03
 738  9.51478311   0.765  -1.70941   3.61221   6.88252   2.06319   0.00000   1.002E+00   0.000E+00  -2.019E-03
 739  9.51601916   0.765  -1.70934   3.61221   6.88249   2.06309   0.00000   1.002E+00   0.000E+00  -2.012E-03
 740  9.51725171   0.765  -1.70927   3.61221   6.88247   2.06299   0.00000   1.002E+00   0.000E+00  -2.005E-03
 741  9.51848077   0.765  -1.70919   3.61221   6.88244   2.06289   0.00000   1.002E+00   0.000E+00  -1.998E-03
 742  9.51970636   0.765  -1.70912   3.61221   6.88241   2.06278   0.00000   1.002E+00   0.000E+00  -1.991E-03
 743  9.52092850   0.765  -1.70905   3.61221   6.88238   2.06268   0.00000   1.002E+00   0.000E+00  -1.984E-03
 744  9.52214721   0.765  -1.70898   3.61221   6.88236   2.06258   0.00000   1.002E+00   0.000E+00  -1.977E-03
 745  9.52336251   0.765  -1.70891   3.61221   6.88233   2.06248   0.00000   1.002E+00   0.000E+00  -1.970E-03
 746  9.52457442   0.765  -1.70884   3.61221   6.88230   2.06238   0.00000   1.002E+00   0.000E+00  -1.963E-03
 747  9.52578295   0.765  -1.70877   3.61221   6.88227   2.06228   0.00000   1.002E+00   0.000E+00  -1.956E-03
 748  9.52698814   0.765  -1.70870   3.61221   6.88225   2.06217   0.00000   1.002E+00   0.000E+00  -1.949E-03
 749  9.52818998   0.765  -1.70863   3.61221   6.88222   2.06208   0.00000   1.002E+00   0.000E+00  -1.943E-03
 750  9.52938852   0.765  -1.70857   3.61221   6.88220   2.06198   0.00000   1.002E+00   0.000E+00  -1.937E-03
 751  9.53058375   0.765  -1.70850   3.61221   6.88217   2.06189   0.00000   1.002E+00   0.000E+00  -1.931E-03
 752  9.53177570   0.765  -1.70843   3.61221   6.88215   2.06179   0.00000   1.002E+00   0.000E+00  -1.925E-03
 753  9.53296439   0.765  -1.70837   3.61221   6.88212   2.06170   0.00000   1.002E+00   0.000E+00  -1.919E-03
 754  9.53414984   0.765  -1.70830   3.61222   6.88209   2.06160   0.00000   1.002E+00   0.000E+00  -1.913E-03
 755  9.53533205   0.765  -1.70824   3.61222   6.88207   2.06151   0.00000   1.002E+00   0.000E+00  -1.907E-03
 756  9.53651106   0.765  -1.70817   3.61222   6.88204   2.06141   0.00000   1.002E+00   0.000E+00  -1.901E-03
 757  9.53768688   0.765  -1.70810   3.61222   6.88202   2.06132   0.00000   1.002E+00   0.000E+00  -1.894E-03
 758  9.53885952   0.765  -1.70804   3.61222   6.88199   2.06122   0.00000   1.002E+00   0.000E+00  -1.888E-03
 759  9.54002901   0.765  -1.70797   3.61222   6.88197   2.06113   0.00000   1.002E+00   0.000E+00  -1.882E-03
 760  9.54119535   0.765  -1.70790   3.61222   6.88194   2.06103   0.00000   1.002E+00   0.000E+00  -1.876E-03
 761  9.54235857   0.765  -1.70784   3.61222   6.88192   2.06094   0.00000   1.002E+00   0.000E+00  -1.870E-03
 762  9.54351868   0.765  -1.70777   3.61222   6.88189   2.06084   0.00000   1.002E+00   0.000E+00  -1.864E-03
 763  9.54467570   0.765  -1.70771   3.61222   6.88187   2.06075   0.00000   1.002E+00   0.000E+00  -1.858E-03
 764  9.54582965   0.765  -1.70764   3.61223   6.88184   2.06065   0.00000   1.002E+00   0.000E+00  -1.852E-03
 765  9.54698054   0.765  -1.70757   3.61223   6.88182   2.06056   0.00000   1.002E+00   0.000E+00  -1.846E-03
 766  9.54812839   0.765  -1.70751   3.61223   6.88179   2.06046   0.00000   1.002E+00   0.000E+00  -1.840E-03
 767  9.54927321   0.765  -1.70744   3.61223   6.88177   2.06037   0.00000   1.002E+00   0.000E+00  -1.834E-03
 768  9.55041502   0.765  -1.70738   3.61223   6.88174   2.06027   0.00000   1.002E+00   0.000E+00  -1.828E-03
 769  9.55155384   0.765  -1.70731   3.61223   6.88172   2.06018   0.00000   1.002E+00   0.000E+00  -1.822E-03
 770  9.55268968   0.765  -1.70725   3.61223   6.88169   2.06009   0.00000   1.002E+00   0.000E+00  -1.816E-03
 771  9.55382255   0.765  -1.70718   3.61223   6.88167   2.06000   0.00000   1.002E+00   0.000E+00  -1.810E-03
 772  9.55495248   0.765  -1.70712   3.61223   6.88165   2.05991   0.00000   1.002E+00   0.000E+00  -1.804E-03
 773  9.55607948   0.765  -1.70706   3.61223   6.88162   2.05982   0.00000   1.002E+00   0.000E+00  -1.798E-03
 774  9.55720356   0.765  -1.70700   3.61223   6.88160   2.05973   0.00000   1.002E+00   0.000E+00  -1.791E-03
 775  9.55832474   0.765  -1.70693   3.61223   6.88158   2.05964   0.00000   1.002E+00   0.000E+00  -1.785E-03
 776  9.55944303   0.765  -1.70687   3.61223   6.88155   2.05955   0.00000   1.002E+00   0.000E+00  -1.779E-03
 777  9.56055844   0.765  -1.70681   3.61223   6.88153   2.05946   0.00000   1.002E+00   0.000E+00  -1.773E-03
 778  9.56167101   0.765  -1.70675   3.61223   6.88151   2.05937   0.00000   1.002E+00   0.000E+00  -1.767E-03
 779  9.56278072   0.765  -1.70668   3.61223   6.88148   2.05929   0.00000   1.002E+00   0.000E+00  -1.761E-03
 780  9.56388761   0.765  -1.70662   3.61223   6.88146   2.05920   0.00000   1.002E+00   0.000E+00  -1.755E-03
 781  9.56499169   0.765  -1.70656   3.61224   6.88144   2.05911   0.00000   1.002E+00   0.000E+00  -1.749E-03
 782  9.56609297   0.765  -1.70650   3.61224   6.88141   2.05902   0.00000   1.002E+00   0.000E+00  -1.743E-03
 783  9.56719146   0.765  -1.70643   3.61224   6.88139   2.05893   0.00000   1.002E+00   0.000E+00  -1.737E-03
 784  9.56828718   0.765  -1.70637   3.61224   6.88137   2.05884   0.00000   1.002E+00   0.000E+00  -1.731E-03
 785  9.56938014   0.765  -1.70631   3.61224   6.88134   2.05875   0.00000   1.002E+00   0.000E+00  -1.725E-03
 786  9.57047036   0.765  -1.70625   3.61224   6.88132   2.05866   0.00000   1.002E+00   0.000E+00  -1.719E-03
 787  9.57155784   0.765  -1.70618   3.61224   6.88130   2.05857   0.00000   1.002E+00   0.000E+00  -1.713E-03
 788  9.57264262   0.765  -1.70612   3.61224   6.88127   2.05848   0.00000   1.002E+00   0.000E+00  -1.707E-03
 789  9.57372468   0.765  -1.70606   3.61224   6.88125   2.05839   0.00000   1.002E+00   0.000E+00  -1.701E-03
 790  9.57480406   0.765  -1.70600   3.61224   6.88123   2.05831   0.00000   1.002E+00   0.000E+00  -1.694E-03
 791  9.57588077   0.765  -1.70593   3.61224   6.88120   2.05822   0.00000   1.002E+00   0.000E+00  -1.689E-03
 792  9.57695481   0.765  -1.70588   3.61224   6.88118   2.05813   0.00000   1.002E+00   0.000E+00  -1.684E-03
 793  9.57802620   0.765  -1.70582   3.61224   6.88116   2.05805   0.00000   1.002E+00   0.000E+00  -1.678E-03
 794  9.57909495   0.765  -1.70576   3.61224   6.88114   2.05797   0.00000   1.002E+00   0.000E+00  -1.673E-03
 795  9.58016109   0.765  -1.70570   3.61224   6.88112   2.05788   0.00000   1.002E+00   0.000E+00  -1.668E-03
 796  9.58122461   0.765  -1.70564   3.61224   6.88109   2.05780   0.00000   1.002E+00   0.000E+00  -1.663E-03
 797  9.58228553   0.765  -1.70558   3.61224   6.88107   2.05772   0.00000   1.002E+00   0.000E+00  -1.658E-03
 798  9.58334387   0.765  -1.70553   3.61224   6.88105   2.05763   0.00000   1.002E+00   0.000E+00  -1.653E-03
 799  9.58439963   0.765  -1.70547   3.61224   6.88103   2.05755   0.00000   1.002E+00   0.000E+00  -1.648E-03
 800  9.58545283   0.765  -1.70541   3.61224   6.88101   2.05747   0.00000   1.002E+00   0.000E+00  -1.642E-03
 801  9.58650349   0.765  -1.70535   3.61224   6.88099   2.05738   0.00000   1.002E+00   0.000E+00  -1.637E-03
 802  9.58755161   0.765  -1.70529   3.61225   6.88096   2.05730   0.00000   1.002E+00   0.000E+00  -1.632E-03
 803  9.58859721   0.765  -1.70524   3.61225   6.88094   2.05722   0.00000   1.002E+00   0.000E+00  -1.627E-03
 804  9.58964029   0.765  -1.70518   3.61225   6.88092   2.05713   0.00000   1.002E+00   0.000E+00  -1.622E-03
 805  9.59068088   0.765  -1.70512   3.61225   6.88090   2.05705   0.00000   1.002E+00   0.000E+00  -1.617E-03
 806  9.59171898   0.765  -1.70506   3.61225   6.88088   2.05697   0.00000   1.002E+00   0.000E+00  -1.612E-03
 807  9.59275460   0.765  -1.70500   3.61225   6.88085   2.05688   0.00000   1.002E+00   0.000E+00  -1.607E-03
 808  9.59378776   0.765  -1.70494   3.61225   6.88083   2.05680   0.00000   1.002E+00   0.000E+00  -1.601E-03
 809  9.59481847   0.765  -1.70489   3.61225   6.88081   2.05672   0.00000   1.002E+00   0.000E+00  -1.596E-03
 810  9.59584673   0.765  -1.70483   3.61225   6.88079   2.05663   0.00000   1.002E+00   0.000E+00  -1.591E-03
 811  9.59687257   0.765  -1.70477   3.61225   6.88077   2.05655   0.00000   1.002E+00   0.000E+00  -1.586E-03
 812  9.59789599   0.765  -1.70471   3.61225   6.88074   2.05647   0.00000   1.002E+00   0.000E+00  -1.581E-03
 813  9.59891701   0.765  -1.70466   3.61225   6.88072   2.05639   0.00000   1.002E+00   0.000E+00  -1.576E-03
 814  9.59993563   0.764  -1.70460   3.61225   6.88070   2.05631   0.00000   1.002E+00   0.000E+00  -1.572E-03
 815  9.60095187   0.764  -1.70455   3.61225   6.88068   2.05623   0.00000   1.002E+00   0.000E+00  -1.567E-03
 816  9.60196573   0.764  -1.70449   3.61225   6.88066   2.05615   0.00000   1.002E+00   0.000E+00  -1.562E-03
 817  9.60297723   0.764  -1.70443   3.61225   6.88064   2.05607   0.00000   1.002E+00   0.000E+00  -1.558E-03
 818  9.60398639   0.764  -1.70438   3.61226   6.88062   2.05599   0.00000   1.002E+00   0.000E+00  -1.553E-03
 819  9.60499320   0.764  -1.70432   3.61226   6.88060   2.05591   0.00000   1.002E+00   0.000E+00  -1.548E-03
 820  9.60599768   0.764  -1.70427   3.61226   6.88058   2.05583   0.00000   1.002E+00   0.000E+00  -1.544E-03
 821  9.60699985   0.764  -1.70421   3.61226   6.88056   2.05576   0.00000   1.002E+00   0.000E+00  -1.539E-03
 822  9.60799971   0.764  -1.70416   3.61226   6.88054   2.05568   0.00000   1.002E+00   0.000E+00  -1.534E-03
 823  9.60899727   0.764  -1.70410   3.61226   6.88052   2.05560   0.00000   1.001E+00   0.000E+00  -1.530E-03
 824  9.60999255   0.764  -1.70405   3.61226   6.88050   2.05552   0.00000   1.001E+00   0.000E+00  -1.525E-03
 825  9.61098555   0.764  -1.70399   3.61226   6.88048   2.05544   0.00000   1.001E+00   0.000E+00  -1.520E-03
 826  9.61197628   0.764  -1.70394   3.61226   6.88046   2.05536   0.00000   1.001E+00   0.000E+00  -1.516E-03
 827  9.61296476   0.764  -1.70388   3.61226   6.88044   2.05528   0.00000   1.001E+00   0.000E+00  -1.511E-03
 828  9.61395100   0.764  -1.70383   3.61226   6.88042   2.05520   0.00000   1.001E+00   0.000E+00  -1.506E-03
 829  9.61493500   0.764  -1.70377   3.61227   6.88039   2.05512   0.00000   1.001E+00   0.000E+00  -1.502E-03
 830  9.61591678   0.764  -1.70372   3.61227   6.88037   2.05505   0.00000   1.001E+00   0.000E+00  -1.497E-03
 831  9.61689634   0.764  -1.70366   3.61227   6.88035   2.05497   0.00000   1.001E+00   0.000E+00  -1.492E-03
 832  9.61787370   0.764  -1.70361   3.61227   6.88033   2.05489   0.00000   1.001E+00   0.000E+00  -1.488E-03
 833  9.61884886   0.764  -1.70355   3.61227   6.88031   2.05481   0.00000   1.001E+00   0.000E+00  -1.483E-03
 834  9.61982184   0.764  -1.70350   3.61227   6.88029   2.05473   0.00000   1.001E+00   0.000E+00  -1.478E-03
 835  9.62079264   0.764  -1.70345   3.61227   6.88027   2.05466   0.00000   1.001E+00   0.000E+00  -1.474E-03
 836  9.62176128   0.764  -1.70340   3.61227   6.88025   2.05459   0.00000   1.001E+00   0.000E+00  -1.470E-03
 837  9.62272776   0.764  -1.70334   3.61227   6.88024   2.05451   0.00000   1.001E+00   0.000E+00  -1.466E-03
 838  9.62369210   0.764  -1.70329   3.61227   6.88022   2.05444   0.00000   1.001E+00   0.000E+00  -1.462E-03
 839  9.62465430   0.764  -1.70324   3.61227   6.88020   2.05436   0.00000   1.001E+00   0.000E+00  -1.457E-03
 840  9.62561437   0.764  -1.70319   3.61227   6.88018   2.05429   0.00000   1.001E+00   0.000E+00  -1.453E-03
 841  9.62657233   0.764  -1.70314   3.61227   6.88016   2.05422   0.00000   1.001E+00   0.000E+00  -1.449E-03
 842  9.62752818   0.764  -1.70308   3.61227   6.88014   2.05414   0.00000   1.001E+00   0.000E+00  -1.445E-03
 843  9.62848193   0.764  -1.70303   3.61227   6.88012   2.05407   0.00000   1.001E+00   0.000E+00  -1.441E-03
 844  9.62943358   0.764  -1.70298   3.61227   6.88010   2.05400   0.00000   1.001E+00   0.000E+00  -1.436E-03
 845  9.63038316   0.764  -1.70293   3.61228   6.88008   2.05392   0.00000   1.001E+00   0.000E+00  -1.432E-03
 846  9.63133067   0.764  -1.70287   3.61228   6.88006   2.05385   0.00000   1.001E+00   0.000E+00  -1.428E-03
 847  9.63227611   0.764  -1.70282   3.61228   6.88004   2.05378   0.00000   1.001E+00   0.000E+00  -1.424E-03
 848  9.63321950   0.764  -1.70277   3.61228   6.88003   2.05370   0.00000   1.001E+00   0.000E+00  -1.420E-03
 849  9.63416084   0.764  -1.70272   3.61228   6.88001   2.05363   0.00000   1.001E+00   0.000E+00  -1.416E-03
 850  9.63510015   0.764  -1.70267   3.61228   6.87999   2.05355   0.00000   1.001E+00   0.000E+00  -1.411E-03
 851  9.63603743   0.764  -1.70261   3.61228   6.87997   2.05348   0.00000   1.001E+00   0.000E+00  -1.407E-03
 852  9.63697269   0.764  -1.70256   3.61228   6.87995   2.05341   0.00000   1.001E+00   0.000E+00  -1.403E-03
 853  9.63790595   0.764  -1.70251   3.61228   6.87993   2.05333   0.00000   1.001E+00   0.000E+00  -1.399E-03
 854  9.63883720   0.764  -1.70246   3.61228   6.87991   2.05326   0.00000   1.001E+00   0.000E+00  -1.395E-03
 855  9.63976646   0.764  -1.70240   3.61228   6.87989   2.05319   0.00000   1.001E+00   0.000E+00  -1.390E-03
 856  9.64069373   0.764  -1.70236   3.61228   6.87987   2.05312   0.00000   1.001E+00   0.000E+00  -1.386E-03
 857  9.64161903   0.764  -1.70231   3.61228   6.87986   2.05305   0.00000   1.001E+00   0.000E+00  -1.382E-03
 858  9.64254236   0.764  -1.70226   3.61228   6.87984   2.05298   0.00000   1.001E+00   0.000E+00  -1.378E-03
 859  9.64346374   0.764  -1.70221   3.61228   6.87982   2.05291   0.00000   1.001E+00   0.000E+00  -1.374E-03
 860  9.64438316   0.764  -1.70216   3.61228   6.87980   2.05284   0.00000   1.001E+00   0.000E+00  -1.369E-03
 861  9.64530064   0.764  -1.70211   3.61228   6.87979   2.05277   0.00000   1.001E+00   0.000E+00  -1.365E-03
 862  9.64621619   0.764  -1.70206   3.61228   6.87977   2.05270   0.00000   1.001E+00   0.000E+00  -1.361E-03
 863  9.64712981   0.764  -1.70202   3.61228   6.87975   2.05263   0.00000   1.001E+00   0.000E+00  -1.357E-03
 864  9.64804151   0.764  -1.70197   3.61228   6.87973   2.05256   0.00000   1.001E+00   0.000E+00  -1.353E-03
 865  9.64895130   0.764  -1.70192   3.61228   6.87971   2.05249   0.00000   1.001E+00   0.000E+00  -1.348E-03
 866  9.64985919   0.764  -1.70187   3.61229   6.87970   2.05242   0.00000   1.001E+00   0.000E+00  -1.344E-03
 867  9.65076519   0.764  -1.70182   3.61229   6.87968   2.05235   0.00000   1.001E+00   0.000E+00  -1.340E-03
 868  9.65166930   0.764  -1.70177   3.61229   6.87966   2.05228   0.00000   1.001E+00   0.000E+00  -1.336E-03
 869  9.65257153   0.764  -1.70172   3.61229   6.87964   2.05221   0.00000   1.001E+00   0.000E+00  -1.332E-03
 870  9.65347189   0.764  -1.70168   3.61229   6.87963   2.05214   0.00000   1.001E+00   0.000E+00  -1.327E-03
 871  9.65437039   0.764  -1.70163   3.61229   6.87961   2.05207   0.00000   1.001E+00   0.000E+00  -1.323E-03
 872  9.65526703   0.764  -1.70158   3.61229   6.87959   2.05200   0.00000   1.001E+00   0.000E+00  -1.319E-03
 873  9.65616183   0.764  -1.70153   3.61229   6.87957   2.05193   0.00000   1.001E+00   0.000E+00  -1.315E-03
 874  9.65705479   0.764  -1.70148   3.61229   6.87955   2.05187   0.00000   1.001E+00   0.000E+00  -1.311E-03
 875  9.65794591   0.764  -1.70143   3.61229   6.87954   2.05180   0.00000   1.001E+00   0.000E+00  -1.306E-03
 876  9.65883521   0.764  -1.70139   3.61229   6.87952   2.05173   0.00000   1.001E+00   0.000E+00  -1.302E-03
 877  9.65972269   0.764  -1.70134   3.61229   6.87950   2.05166   0.00000   1.001E+00   0.000E+00  -1.298E-03
 878  9.66060837   0.764  -1.70129   3.61229   6.87949   2.05159   0.00000   1.001E+00   0.000E+00  -1.295E-03
 879  9.66149224   0.764  -1.70124   3.61229   6.87947   2.05153   0.00000   1.001E+00   0.000E+00  -1.291E-03
 880  9.66237431   0.764  -1.70120   3.61229   6.87945   2.05146   0.00000   1.001E+00   0.000E+00  -1.287E-03
 881  9.66325460   0.764  -1.70115   3.61229   6.87943   2.05140   0.00000   1.001E+00   0.000E+00  -1.283E-03
 882  9.66413310   0.764  -1.70110   3.61230   6.87942   2.05133   0.00000   1.001E+00   0.000E+00  -1.280E-03
 883  9.66500984   0.764  -1.70106   3.61230   6.87940   2.05126   0.00000   1.001E+00   0.000E+00  -1.276E-03
 884  9.66588480   0.764  -1.70101   3.61230   6.87938   2.05120   0.00000   1.001E+00   0.000E+00  -1.272E-03
 885  9.66675801   0.764  -1.70096   3.61230   6.87937   2.05113   0.00000   1.001E+00   0.000E+00  -1.268E-03
 886  9.66762946   0.764  -1.70092   3.61230   6.87935   2.05107   0.00000   1.001E+00   0.000E+00  -1.265E-03
 887  9.66849917   0.764  -1.70087   3.61230   6.87933   2.05100   0.00000   1.001E+00   0.000E+00  -1.261E-03
 888  9.66936715   0.764  -1.70082   3.61230   6.87932   2.05094   0.00000   1.001E+00   0.000E+00  -1.257E-03
 889  9.67023339   0.764  -1.70078   3.61230   6.87930   2.05087   0.00000   1.001E+00   0.000E+00  -1.253E-03
 890  9.67109790   0.764  -1.70073   3.61230   6.87928   2.05080   0.00000   1.001E+00   0.000E+00  -1.250E-03
 891  9.67196070   0.764  -1.70069   3.61230   6.87927   2.05074   0.00000   1.001E+00   0.000E+00  -1.246E-03
 892  9.67282179   0.764  -1.70064   3.61230   6.87925   2.05067   0.00000   1.001E+00   0.000E+00  -1.242E-03
 893  9.67368117   0.764  -1.70059   3.61231   6.87923   2.05061   0.00000   1.001E+00   0.000E+00  -1.239E-03
 894  9.67453886   0.764  -1.70055   3.61231   6.87922   2.05054   0.00000   1.001E+00   0.000E+00  -1.235E-03
 895  9.67539485   0.764  -1.70050   3.61231   6.87920   2.05048   0.00000   1.001E+00   0.000E+00  -1.231E-03
 896  9.67624917   0.764  -1.70045   3.61231   6.87918   2.05041   0.00000   1.001E+00   0.000E+00  -1.227E-03
 897  9.67710180   0.764  -1.70041   3.61231   6.87917   2.05034   0.00000   1.001E+00   0.000E+00  -1.224E-03
 898  9.67795277   0.764  -1.70036   3.61231   6.87915   2.05028   0.00000   1.001E+00   0.000E+00  -1.220E-03
 899  9.67880207   0.764  -1.70031   3.61231   6.87913   2.05022   0.00000   1.001E+00   0.000E+00  -1.217E-03
 900  9.67964971   0.764  -1.70027   3.61231   6.87912   2.05015   0.00000   1.001E+00   0.000E+00  -1.213E-03
 901  9.68049570   0.764  -1.70023   3.61231   6.87910   2.05009   0.00000   1.001E+00   0.000E+00  -1.210E-03
 902  9.68134005   0.764  -1.70018   3.61231   6.87909   2.05003   0.00000   1.001E+00   0.000E+00  -1.207E-03
 903  9.68218276   0.764  -1.70014   3.61231   6.87907   2.04996   0.00000   1.001E+00   0.000E+00  -1.204E-03
 904  9.68302383   0.764  -1.70010   3.61231   6.87905   2.04990   0.00000   1.001E+00   0.000E+00  -1.200E-03
 905  9.68386328   0.764  -1.70005   3.61231   6.87904   2.04984   0.00000   1.001E+00   0.000E+00  -1.197E-03
 906  9.68470111   0.764  -1.70001   3.61231   6.87902   2.04977   0.00000   1.001E+00   0.000E+00  -1.194E-03
 907  9.68553733   0.764  -1.69996   3.61231   6.87901   2.04971   0.00000   1.001E+00   0.000E+00  -1.191E-03
 908  9.68637194   0.764  -1.69992   3.61231   6.87899   2.04965   0.00000   1.001E+00   0.000E+00  -1.187E-03
 909  9.68720495   0.764  -1.69988   3.61232   6.87898   2.04959   0.00000   1.001E+00   0.000E+00  -1.184E-03
 910  9.68803637   0.764  -1.69983   3.61232   6.87896   2.04952   0.00000   1.001E+00   0.000E+00  -1.181E-03
 911  9.68886619   0.764  -1.69979   3.61232   6.87894   2.04946   0.00000   1.001E+00   0.000E+00  -1.177E-03
 912  9.68969444   0.764  -1.69975   3.61232   6.87893   2.04940   0.00000   1.001E+00   0.000E+00  -1.174E-03
 913  9.69052111   0.764  -1.69970   3.61232   6.87891   2.04933   0.00000   1.001E+00   0.000E+00  -1.171E-03
 914  9.69134620   0.764  -1.69966   3.61232   6.87890   2.04927   0.00000   1.001E+00   0.000E+00  -1.168E-03
 915  9.69216973   0.764  -1.69961   3.61232   6.87888   2.04921   0.00000   1.001E+00   0.000E+00  -1.164E-03
 916  9.69299171   0.764  -1.69957   3.61232   6.87886   2.04915   0.00000   1.001E+00   0.000E+00  -1.161E-03
 917  9.69381213   0.764  -1.69953   3.61232   6.87885   2.04908   0.00000   1.001E+00   0.000E+00  -1.158E-03
 918  9.69463100   0.764  -1.69948   3.61232   6.87883   2.04902   0.00000   1.001E+00   0.000E+00  -1.155E-03
 919  9.69544834   0.764  -1.69944   3.61232   6.87882   2.04896   0.00000   1.001E+00   0.000E+00  -1.151E-03
 920  9.69626413   0.764  -1.69940   3.61232   6.87880   2.04890   0.00000   1.001E+00   0.000E+00  -1.148E-03
 921  9.69707840   0.764  -1.69935   3.61232   6.87879   2.04884   0.00000   1.001E+00   0.000E+00  -1.145E-03
 922  9.69789115   0.763  -1.69931   3.61232   6.87877   2.04878   0.00000   1.001E+00   0.000E+00  -1.142E-03
 923  9.69870237   0.763  -1.69927   3.61232   6.87876   2.04872   0.00000   1.001E+00   0.000E+00  -1.138E-03
 924  9.69951209   0.763  -1.69923   3.61232   6.87874   2.04866   0.00000   1.001E+00   0.000E+00  -1.135E-03
 925  9.70032029   0.763  -1.69919   3.61232   6.87873   2.04860   0.00000   1.001E+00   0.000E+00  -1.132E-03
 926  9.70112700   0.763  -1.69915   3.61232   6.87871   2.04855   0.00000   1.001E+00   0.000E+00  -1.129E-03
 927  9.70193221   0.763  -1.69911   3.61232   6.87870   2.04849   0.00000   1.001E+00   0.000E+00  -1.125E-03
 928  9.70273593   0.763  -1.69906   3.61232   6.87869   2.04843   0.00000   1.001E+00   0.000E+00  -1.122E-03
 929  9.70353816   0.763  -1.69902   3.61232   6.87867   2.04837   0.00000   1.001E+00   0.000E+00  -1.119E-03
 930  9.70433892   0.763  -1.69898   3.61232   6.87866   2.04831   0.00000   1.001E+00   0.000E+00  -1.115E-03
 931  9.70513820   0.763  -1.69894   3.61233   6.87864   2.04826   0.00000   1.001E+00   0.000E+00  -1.112E-03
 932  9.70593601   0.763  -1.69890   3.61233   6.87863   2.04820   0.00000   1.001E+00   0.000E+00  -1.109E-03
 933  9.70673237   0.763  -1.69886   3.61233   6.87861   2.04814   0.00000   1.001E+00   0.000E+00  -1.106E-03
 934  9.70752726   0.763  -1.69881   3.61233   6.87860   2.04808   0.00000   1.001E+00   0.000E+00  -1.102E-03
 935  9.70832070   0.763  -1.69877   3.61233   6.87858   2.04802   0.00000   1.001E+00   0.000E+00  -1.099E-03
 936  9.70911269   0.763  -1.69873   3.61233   6.87857   2.04796   0.00000   1.001E+00   0.000E+00  -1.096E-03
 937  9.70990325   0.763  -1.69869   3.61233   6.87856   2.04791   0.00000   1.001E+00   0.000E+00  -1.093E-03
 938  9.71069236   0.763  -1.69865   3.61233   6.87854   2.04785   0.00000   1.001E+00   0.000E+00  -1.089E-03
 939  9.71148005   0.763  -1.69861   3.61233   6.87853   2.04779   0.00000   1.001E+00   0.000E+00  -1.086E-03
 940  9.71226631   0.763  -1.69857   3.61233   6.87851   2.04773   0.00000   1.001E+00   0.000E+00  -1.083E-03
 941  9.71305114   0.763  -1.69852   3.61233   6.87850   2.04767   0.00000   1.001E+00   0.000E+00  -1.080E-03
 942  9.71383457   0.763  -1.69849   3.61233   6.87848   2.04762   0.00000   1.001E+00   0.000E+00  -1.077E-03
 943  9.71461658   0.763  -1.69845   3.61233   6.87847   2.04756   0.00000   1.001E+00   0.000E+00  -1.074E-03
 944  9.71539718   0.763  -1.69841   3.61233   6.87846   2.04751   0.00000   1.001E+00   0.000E+00  -1.071E-03
 945  9.71617639   0.763  -1.69837   3.61233   6.87844   2.04745   0.00000   1.001E+00   0.000E+00  -1.068E-03
 946  9.71695420   0.763  -1.69833   3.61233   6.87843   2.04740   0.00000   1.001E+00   0.000E+00  -1.066E-03
 947  9.71773062   0.763  -1.69829   3.61233   6.87841   2.04734   0.00000   1.001E+00   0.000E+00  -1.063E-03
 948  9.71850565   0.763  -1.69825   3.61233   6.87840   2.04729   0.00000   1.001E+00   0.000E+00  -1.060E-03
 949  9.71927930   0.763  -1.69821   3.61233   6.87839   2.04723   0.00000   1.001E+00   0.000E+00  -1.057E-03
 950  9.72005158   0.763  -1.69817   3.61233   6.87837   2.04718   0.00000   1.001E+00   0.000E+00  -1.054E-03
 951  9.72082249   0.763  -1.69813   3.61233   6.87836   2.04712   0.00000   1.001E+00   0.000E+00  -1.052E-03
 952  9.72159203   0.763  -1.69809   3.61234   6.87834   2.04707   0.00000   1.001E+00   0.000E+00  -1.049E-03
 953  9.72236021   0.763  -1.69805   3.61234   6.87833   2.04701   0.00000   1.001E+00   0.000E+00  -1.046E-03
 954  9.72312703   0.763  -1.69802   3.61234   6.87832   2.04696   0.00000   1.001E+00   0.000E+00  -1.043E-03
 955  9.72389250   0.763  -1.69798   3.61234   6.87830   2.04690   0.00000   1.001E+00   0.000E+00  -1.040E-03
 956  9.72465663   0.763  -1.69794   3.61234   6.87829   2.04685   0.00000   1.001E+00   0.000E+00  -1.038E-03
 957  9.72541941   0.763  -1.69790   3.61234   6.87827   2.04679   0.00000   1.001E+00   0.000E+00  -1.035E-03
 958  9.72618085   0.763  -1.69786   3.61234   6.87826   2.04674   0.00000   1.001E+00   0.000E+00  -1.032E-03
 959  9.72694097   0.763  -1.69782   3.61234   6.87825   2.04668   0.00000   1.001E+00   0.000E+00  -1.029E-03
 960  9.72769975   0.763  -1.69778   3.61234   6.87823   2.04663   0.00000   1.001E+00   0.000E+00  -1.026E-03
 961  9.72845721   0.763  -1.69774   3.61234   6.87822   2.04657   0.00000   1.001E+00   0.000E+00  -1.024E-03
 962  9.72921335   0.763  -1.69770   3.61234   6.87820   2.04652   0.00000   1.001E+00   0.000E+00  -1.021E-03
 963  9.72996818   0.763  -1.69766   3.61234   6.87819   2.04646   0.00000   1.001E+00   0.000E+00  -1.018E-03
 964  9.73072170   0.763  -1.69763   3.61234   6.87818   2.04641   0.00000   1.001E+00   0.000E+00  -1.016E-03
 965  9.73147391   0.763  -1.69759   3.61234   6.87817   2.04636   0.00000   1.001E+00   0.000E+00  -1.013E-03
 966  9.73222482   0.763  -1.69755   3.61234   6.87815   2.04631   0.00000   1.001E+00   0.000E+00  -1.011E-03
 967  9.73297444   0.763  -1.69752   3.61234   6.87814   2.04625   0.00000   1.001E+00   0.000E+00  -1.009E-03
 968  9.73372277   0.763  -1.69748   3.61234   6.87813   2.04620   0.00000   1.001E+00   0.000E+00  -1.006E-03
 969  9.73446980   0.763  -1.69744   3.61234   6.87812   2.04615   0.00000   1.001E+00   0.000E+00  -1.004E-03
 970  9.73521556   0.763  -1.69740   3.61234   6.87810   2.04610   0.00000   1.001E+00   0.000E+00  -1.001E-03
 971  9.73596003   0.763  -1.69737   3.61234   6.87809   2.04604   0.00000   1.001E+00   0.000E+00  -9.989E-04
 972  9.73670324   0.763  -1.69733   3.61234   6.87808   2.04599   0.00000   1.001E+00   0.000E+00  -9.965E-04
 973  9.73744517   0.763  -1.69729   3.61234   6.87807   2.04594   0.00000   1.001E+00   0.000E+00  -9.941E-04
 974  9.73818584   0.763  -1.69725   3.61235   6.87805   2.04588   0.00000   1.001E+00   0.000E+00  -9.917E-04
 975  9.73892524   0.763  -1.69722   3.61235   6.87804   2.04583   0.00000   1.001E+00   0.000E+00  -9.892E-04
 976  9.73966339   0.763  -1.69718   3.61235   6.87803   2.04578   0.00000   1.001E+00   0.000E+00  -9.868E-04
 977  9.74040029   0.763  -1.69714   3.61235   6.87802   2.04573   0.00000   1.001E+00   0.000E+00  -9.844E-04
 978  9.74113594   0.763  -1.69710   3.61235   6.87800   2.04567   0.00000   1.001E+00   0.000E+00  -9.820E-04
 979  9.74187034   0.763  -1.69707   3.61235   6.87799   2.04562   0.00000   1.001E+00   0.000E+00  -9.795E-04
 980  9.74260351   0.763  -1.69703   3.61235   6.87798   2.04557   0.00000   1.001E+00   0.000E+00  -9.771E-04
 981  9.74333544   0.763  -1.69699   3.61235   6.87796   2.04552   0.00000   1.001E+00   0.000E+00  -9.747E-04
 982  9.74406614   0.763  -1.69696   3.61235   6.87795   2.04546   0.00000   1.001E+00   0.000E+00  -9.723E-04
 983  9.74479561   0.763  -1.69692   3.61235   6.87794   2.04541   0.00000   1.001E+00   0.000E+00  -9.698E-04
 984  9.74552385   0.763  -1.69688   3.61235   6.87793   2.04536   0.00000   1.001E+00   0.000E+00  -9.674E-04
 985  9.74625088   0.763  -1.69685   3.61235   6.87792   2.04531   0.00000   1.001E+00   0.000E+00  -9.649E-04
 986  9.74697669   0.763  -1.69681   3.61235   6.87790   2.04526   0.00000   1.001E+00   0.000E+00  -9.625E-04
 987  9.74770130   0.763  -1.69678   3.61235   6.87789   2.04521   0.00000   1.001E+00   0.000E+00  -9.600E-04
 988  9.74842469   0.763  -1.69674   3.61235   6.87788   2.04516   0.00000   1.001E+00   0.000E+00  -9.575E-04
 989  9.74914688   0.763  -1.69670   3.61235   6.87787   2.04511   0.00000   1.001E+00   0.000E+00  -9.551E-04
 990  9.74986788   0.763  -1.69667   3.61236   6.87785   2.04506   0.00000   1.001E+00   0.000E+00  -9.526E-04
 991  9.75058768   0.763  -1.69663   3.61236   6.87784   2.04501   0.00000   1.001E+00   0.000E+00  -9.501E-04
 992  9.75130628   0.763  -1.69660   3.61236   6.87783   2.04496   0.00000   1.001E+00   0.000E+00  -9.476E-04
 993  9.75202370   0.763  -1.69656   3.61236   6.87782   2.04491   0.00000   1.001E+00   0.000E+00  -9.452E-04
 994  9.75273994   0.763  -1.69653   3.61236   6.87781   2.04486   0.00000   1.001E+00   0.000E+00  -9.427E-04
 995  9.75345500   0.763  -1.69649   3.61236   6.87779   2.04481   0.00000   1.001E+00   0.000E+00  -9.402E-04
 996  9.75416888   0.763  -1.69646   3.61236   6.87778   2.04477   0.00000   1.001E+00   0.000E+00  -9.378E-04
 997  9.75488159   0.763  -1.69642   3.61236   6.87777   2.04472   0.00000   1.001E+00   0.000E+00  -9.353E-04
 998  9.75559314   0.763  -1.69639   3.61236   6.87776   2.04467   0.00000   1.001E+00   0.000E+00  -9.328E-04
 999  9.75630352   0.763  -1.69635   3.61236   6.87775   2.04462   0.00000   1.001E+00   0.000E+00  -9.303E-04
1000  9.75701273   0.763  -1.69631   3.61237   6.87773   2.04457   0.00000   1.001E+00   0.000E+00  -9.279E-04
1001  9.75772080   0.763  -1.69628   3.61237   6.87772   2.04452   0.00000   1.001E+00   0.000E+00  -9.254E-04
1002  9.75842771   0.763  -1.69624   3.61237   6.87771   2.04447   0.00000   1.001E+00   0.000E+00  -9.229E-04
1003  9.75913347   0.763  -1.69621   3.61237   6.87770   2.04442   0.00000   1.001E+00   0.000E+00  -9.205E-04
1004  9.75983809   0.763  -1.69617   3.61237   6.87768   2.04437   0.00000   1.001E+00   0.000E+00  -9.180E-04
1005  9.76054156   0.763  -1.69614   3.61237   6.87767   2.04432   0.00000   1.001E+00   0.000E+00  -9.155E-04
1006  9.76124390   0.763  -1.69610   3.61237   6.87766   2.04427   0.00000   1.001E+00   0.000E+00  -9.132E-04
1007  9.76194510   0.763  -1.69607   3.61237   6.87765   2.04423   0.00000   1.001E+00   0.000E+00  -9.110E-04
1008  9.76264518   0.763  -1.69604   3.61237   6.87764   2.04418   0.00000   1.001E+00   0.000E+00  -9.088E-04
1009  9.76334412   0.763  -1.69600   3.61237   6.87763   2.04413   0.00000   1.001E+00   0.000E+00  -9.065E-04
1010  9.76404195   0.763  -1.69597   3.61237   6.87762   2.04408   0.00000   1.001E+00   0.000E+00  -9.043E-04
1011  9.76473865   0.763  -1.69594   3.61237   6.87761   2.04404   0.00000   1.001E+00   0.000E+00  -9.020E-04
1012  9.76543424   0.763  -1.69590   3.61237   6.87759   2.04399   0.00000   1.001E+00   0.000E+00  -8.998E-04
1013  9.76612872   0.763  -1.69587   3.61237   6.87758   2.04394   0.00000   1.001E+00   0.000E+00  -8.976E-04
1014  9.76682208   0.763  -1.69583   3.61237   6.87757   2.04390   0.00000   1.001E+00   0.000E+00  -8.953E-04
1015  9.76751434   0.763  -1.69580   3.61237   6.87756   2.04385   0.00000   1.001E+00   0.000E+00  -8.931E-04
1016  9.76820550   0.763  -1.69577   3.61238   6.87755   2.04380   0.00000   1.001E+00   0.000E+00  -8.909E-04
1017  9.76889557   0.763  -1.69573   3.61238   6.87754   2.04375   0.00000   1.001E+00   0.000E+00  -8.886E-04
1018  9.76958453   0.763  -1.69570   3.61238   6.87753   2.04371   0.00000   1.001E+00   0.000E+00  -8.864E-04
1019  9.77027241   0.763  -1.69567   3.61238   6.87752   2.04366   0.00000   1.001E+00   0.000E+00  -8.841E-04
1020  9.77095920   0.763  -1.69563   3.61238   6.87750   2.04361   0.00000   1.001E+00   0.000E+00  -8.819E-04
1021  9.77164490   0.763  -1.69560   3.61238   6.87749   2.04357   0.00000   1.001E+00   0.000E+00  -8.797E-04
1022  9.77232953   0.763  -1.69557   3.61238   6.87748   2.04352   0.00000   1.001E+00   0.000E+00  -8.774E-04
1023  9.77301307   0.763  -1.69553   3.61238   6.87747   2.04347   0.00000   1.001E+00   0.000E+00  -8.752E-04
1024  9.77369554   0.763  -1.69550   3.61238   6.87746   2.04343   0.00000   1.001E+00   0.000E+00  -8.729E-04
1025  9.77437694   0.763  -1.69547   3.61238   6.87745   2.04338   0.00000   1.001E+00   0.000E+00  -8.707E-04
1026  9.77505728   0.763  -1.69543   3.61238   6.87744   2.04333   0.00000   1.001E+00   0.000E+00  -8.685E-04
1027  9.77573654   0.763  -1.69540   3.61238   6.87743   2.04328   0.00000   1.001E+00   0.000E+00  -8.663E-04
1028  9.77641475   0.763  -1.69537   3.61238   6.87742   2.04324   0.00000   1.001E+00   0.000E+00  -8.642E-04
1029  9.77709190   0.763  -1.69533   3.61238   6.87740   2.04320   0.00000   1.001E+00   0.000E+00  -8.622E-04
1030  9.77776800   0.763  -1.69530   3.61238   6.87739   2.04315   0.00000   1.001E+00   0.000E+00  -8.601E-04
1031  9.77844305   0.763  -1.69527   3.61238   6.87738   2.04311   0.00000   1.001E+00   0.000E+00  -8.581E-04
1032  9.77911704   0.763  -1.69524   3.61238   6.87737   2.04306   0.00000   1.001E+00   0.000E+00  -8.560E-04
1033  9.77979000   0.763  -1.69521   3.61238   6.87736   2.04302   0.00000   1.001E+00   0.000E+00  -8.540E-04
1034  9.78046191   0.763  -1.69517   3.61238   6.87735   2.04297   0.00000   1.001E+00   0.000E+00  -8.519E-04
1035  9.78113278   0.763  -1.69514   3.61238   6.87734   2.04293   0.00000   1.001E+00   0.000E+00  -8.499E-04
1036  9.78180262   0.763  -1.69511   3.61238   6.87733   2.04288   0.00000   1.001E+00   0.000E+00  -8.478E-04
1037  9.78247143   0.763  -1.69508   3.61238   6.87732   2.04284   0.00000   1.001E+00   0.000E+00  -8.458E-04
1038  9.78313921   0.763  -1.69505   3.61239   6.87731   2.04279   0.00000   1.001E+00   0.000E+00  -8.437E-04
1039  9.78380597   0.762  -1.69501   3.61239   6.87730   2.04275   0.00000   1.001E+00   0.000E+00  -8.417E-04
1040  9.78447170   0.762  -1.69498   3.61239   6.87729   2.04270   0.00000   1.001E+00   0.000E+00  -8.396E-04
1041  9.78513641   0.762  -1.69495   3.61239   6.87728   2.04266   0.00000   1.001E+00   0.000E+00  -8.376E-04
1042  9.78580011   0.762  -1.69492   3.61239   6.87727   2.04261   0.00000   1.001E+00   0.000E+00  -8.355E-04
1043  9.78646280   0.762  -1.69488   3.61239   6.87725   2.04257   0.00000   1.001E+00   0.000E+00  -8.335E-04
1044  9.78712447   0.762  -1.69485   3.61239   6.87724   2.04252   0.00000   1.001E+00   0.000E+00  -8.314E-04
1045  9.78778514   0.762  -1.69482   3.61239   6.87723   2.04248   0.00000   1.001E+00   0.000E+00  -8.294E-04
1046  9.78844481   0.762  -1.69479   3.61239   6.87722   2.04243   0.00000   1.001E+00   0.000E+00  -8.273E-04
1047  9.78910347   0.762  -1.69476   3.61239   6.87721   2.04239   0.00000   1.001E+00   0.000E+00  -8.253E-04
1048  9.78976114   0.762  -1.69472   3.61239   6.87720   2.04234   0.00000   1.001E+00   0.000E+00  -8.232E-04
1049  9.79041781   0.762  -1.69469   3.61239   6.87719   2.04230   0.00000   1.001E+00   0.000E+00  -8.213E-04
1050  9.79107349   0.762  -1.69466   3.61239   6.87718   2.04226   0.00000   1.001E+00   0.000E+00  -8.194E-04
1051  9.79172819   0.762  -1.69463   3.61239   6.87717   2.04222   0.00000   1.001E+00   0.000E+00  -8.175E-04
1052  9.79238189   0.762  -1.69460   3.61239   6.87716   2.04217   0.00000   1.001E+00   0.000E+00  -8.156E-04
1053  9.79303462   0.762  -1.69457   3.61239   6.87715   2.04213   0.00000   1.001E+00   0.000E+00  -8.136E-04
1054  9.79368637   0.762  -1.69454   3.61239   6.87714   2.04209   0.00000   1.001E+00   0.000E+00  -8.117E-04
1055  9.79433713   0.762  -1.69451   3.61239   6.87713   2.04205   0.00000   1.001E+00   0.000E+00  -8.098E-04
1056  9.79498693   0.762  -1.69448   3.61239   6.87712   2.04201   0.00000   1.001E+00   0.000E+00  -8.079E-04
1057  9.79563575   0.762  -1.69445   3.61239   6.87711   2.04196   0.00000   1.001E+00   0.000E+00  -8.060E-04
1058  9.79628361   0.762  -1.69442   3.61239   6.87710   2.04192   0.00000   1.001E+00   0.000E+00  -8.041E-04
1059  9.79693050   0.762  -1.69438   3.61240   6.87709   2.04188   0.00000   1.001E+00   0.000E+00  -8.022E-04
1060  9.79757643   0.762  -1.69435   3.61240   6.87708   2.04184   0.00000   1.001E+00   0.000E+00  -8.003E-04
1061  9.79822140   0.762  -1.69432   3.61240   6.87707   2.04179   0.00000   1.001E+00   0.000E+00  -7.983E-04
1062  9.79886542   0.762  -1.69429   3.61240   6.87706   2.04175   0.00000   1.001E+00   0.000E+00  -7.964E-04
1063  9.79950848   0.762  -1.69426   3.61240   6.87705   2.04171   0.00000   1.001E+00   0.000E+00  -7.945E-04
1064  9.80015059   0.762  -1.69423   3.61240   6.87704   2.04167   0.00000   1.001E+00   0.000E+00  -7.926E-04
1065  9.80079175   0.762  -1.69420   3.61240   6.87703   2.04162   0.00000   1.001E+00   0.000E+00  -7.907E-04
1066  9.80143197   0.762  -1.69417   3.61240   6.87702   2.04158   0.00000   1.001E+00   0.000E+00  -7.888E-04
1067  9.80207124   0.762  -1.69414   3.61240   6.87701   2.04154   0.00000   1.001E+00   0.000E+00  -7.869E-04
1068  9.80270957   0.762  -1.69411   3.61240   6.87701   2.04150   0.00000   1.001E+00   0.000E+00  -7.850E-04
1069  9.80334697   0.762  -1.69408   3.61240   6.87700   2.04145   0.00000   1.001E+00   0.000E+00  -7.831E-04
1070  9.80398343   0.762  -1.69404   3.61240   6.87698   2.04141   0.00000   1.001E+00   0.000E+00  -7.854E-04
1071  9.80461897   0.762  -1.69401   3.61240   6.87697   2.04136   0.00000   1.001E+00   0.000E+00  -7.931E-04
1072  9.80525357   0.762  -1.69397   3.61240   6.87696   2.04130   0.00000   1.001E+00   0.000E+00  -8.008E-04
1073  9.80588725   0.762  -1.69393   3.61240   6.87695   2.04125   0.00000   1.001E+00   0.000E+00  -8.085E-04
1074  9.80652000   0.762  -1.69390   3.61240   6.87693   2.04120   0.00000   1.001E+00   0.000E+00  -8.162E-04
1075  9.80715184   0.762  -1.69386   3.61240   6.87692   2.04115   0.00000   1.001E+00   0.000E+00  -8.239E-04
1076  9.80778275   0.762  -1.69382   3.61240   6.87691   2.04110   0.00000   1.001E+00   0.000E+00  -8.316E-04
1077  9.80841275   0.762  -1.69379   3.61240   6.87690   2.04104   0.00000   1.001E+00   0.000E+00  -8.393E-04
1078  9.80904184   0.762  -1.69375   3.61240   6.87688   2.04099   0.00000   1.001E+00   0.000E+00  -8.470E-04
1079  9.80967002   0.762  -1.69371   3.61240   6.87687   2.04094   0.00000   1.001E+00   0.000E+00  -8.547E-04
1080  9.81029729   0.762  -1.69368   3.61240   6.87686   2.04089   0.00000   1.001E+00   0.000E+00  -8.624E-04
1081  9.81092365   0.762  -1.69364   3.61241   6.87685   2.04084   0.00000   1.001E+00   0.000E+00  -8.701E-04
1082  9.81154912   0.762  -1.69360   3.61241   6.87683   2.04079   0.00000   1.001E+00   0.000E+00  -8.778E-04
1083  9.81217368   0.762  -1.69356   3.61241   6.87682   2.04073   0.00000   1.001E+00   0.000E+00  -8.855E-04
1084  9.81279735   0.762  -1.69353   3.61241   6.87681   2.04068   0.00000   1.001E+00   0.000E+00  -8.931E-04
1085  9.81342012   0.762  -1.69349   3.61241   6.87680   2.04063   0.00000   1.001E+00   0.000E+00  -9.008E-04
1086  9.81404201   0.762  -1.69345   3.61241   6.87678   2.04058   0.00000   1.001E+00   0.000E+00  -9.085E-04
1087  9.81466300   0.762  -1.69342   3.61241   6.87677   2.04053   0.00000   1.001E+00   0.000E+00  -9.162E-04
1088  9.81528310   0.762  -1.69338   3.61241   6.87676   2.04048   0.00000   1.001E+00   0.000E+00  -9.239E-04
1089  9.81590232   0.762  -1.69334   3.61241   6.87675   2.04042   0.00000   1.001E+00   0.000E+00  -9.316E-04
1090  9.81652066   0.762  -1.69331   3.61241   6.87673   2.04037   0.00000   1.001E+00   0.000E+00  -9.393E-04
1091  9.81713813   0.762  -1.69327   3.61241   6.87672   2.04032   0.00000   1.001E+00   0.000E+00  -9.470E-04
