 # M = 0.65 Mo, Y = 0.2300, Z = 2.00000E-04, alpha = 1.20, X_D = 4.0E-05
 # Solar Mixture: Asplund et al. (2005)         
 # ------------------------------------------------------------------------------------------------------------
 # NMD   LOG AGE    Xc      LOG L     LOG TE    LOG Tc   LOG RHOc    M-CC       L-PP       L-CNO       L-GRA
 #        (yr)              (Lo)        (K)       (K)   (gr/cm^3)    (Mo)        (L)         (L)         (L)
 # ------------------------------------------------------------------------------------------------------------
   1  5.05906282   0.770   0.87446   3.67951   6.09114  -1.02658   0.00000   9.340E-01   0.000E+00   6.600E-02
   2  5.14368758   0.770   0.86848   3.67964   6.09429  -1.01714   0.00000   9.379E-01   0.000E+00   6.200E-02
   3  5.21448125   0.770   0.86250   3.67976   6.09743  -1.00771   0.00000   9.418E-01   0.000E+00   5.800E-02
   4  5.27533615   0.770   0.85718   3.67987   6.10022  -0.99934   0.00000   9.445E-01   0.000E+00   5.528E-02
   5  5.32870244   0.770   0.85215   3.67997   6.10285  -0.99143   0.00000   9.466E-01   0.000E+00   5.311E-02
   6  5.37622286   0.770   0.84712   3.68007   6.10549  -0.98351   0.00000   9.488E-01   0.000E+00   5.094E-02
   7  5.41905263   0.770   0.84221   3.68017   6.10806  -0.97579   0.00000   9.500E-01   0.000E+00   4.968E-02
   8  5.45803515   0.770   0.83745   3.68026   6.11055  -0.96832   0.00000   9.500E-01   0.000E+00   4.963E-02
   9  5.49380496   0.770   0.83270   3.68036   6.11304  -0.96085   0.00000   9.500E-01   0.000E+00   4.957E-02
  10  5.52685154   0.770   0.82794   3.68045   6.11553  -0.95338   0.00000   9.500E-01   0.000E+00   4.952E-02
  11  5.55756036   0.770   0.82308   3.68054   6.11807  -0.94576   0.00000   9.493E-01   0.000E+00   5.019E-02
  12  5.58624043   0.770   0.81813   3.68063   6.12065  -0.93802   0.00000   9.481E-01   0.000E+00   5.143E-02
  13  5.61314328   0.770   0.81319   3.68071   6.12323  -0.93028   0.00000   9.469E-01   0.000E+00   5.268E-02
  14  5.63847636   0.770   0.80824   3.68080   6.12580  -0.92255   0.00000   9.457E-01   0.000E+00   5.393E-02
  15  5.66241283   0.770   0.80302   3.68090   6.12852  -0.91439   0.00000   9.438E-01   0.000E+00   5.584E-02
  16  5.68509864   0.770   0.79749   3.68099   6.13140  -0.90575   0.00000   9.413E-01   0.000E+00   5.853E-02
  17  5.70665804   0.770   0.79196   3.68109   6.13428  -0.89710   0.00000   9.387E-01   0.000E+00   6.123E-02
  18  5.72719760   0.770   0.78643   3.68119   6.13716  -0.88846   0.00000   9.362E-01   0.000E+00   6.393E-02
  19  5.74680948   0.770   0.78036   3.68130   6.14031  -0.87899   0.00000   9.323E-01   0.000E+00   6.786E-02
  20  5.76557385   0.770   0.77380   3.68141   6.14371  -0.86878   0.00000   9.272E-01   0.000E+00   7.290E-02
  21  5.78356095   0.770   0.76724   3.68151   6.14711  -0.85857   0.00000   9.220E-01   0.000E+00   7.794E-02
  22  5.80083261   0.770   0.76065   3.68162   6.15052  -0.84833   0.00000   9.169E-01   0.000E+00   8.304E-02
  23  5.81744358   0.770   0.75255   3.68174   6.15471  -0.83577   0.00000   9.078E-01   0.000E+00   9.218E-02
  24  5.83344254   0.770   0.74444   3.68186   6.15889  -0.82322   0.00000   8.987E-01   0.000E+00   1.013E-01
  25  5.84887300   0.770   0.73622   3.68199   6.16313  -0.81051   0.00000   8.892E-01   0.000E+00   1.108E-01
  26  5.86377398   0.770   0.72600   3.68213   6.16839  -0.79472   0.00000   8.721E-01   0.000E+00   1.279E-01
  27  5.87818061   0.770   0.71578   3.68228   6.17364  -0.77894   0.00000   8.551E-01   0.000E+00   1.449E-01
  28  5.89212464   0.770   0.70379   3.68244   6.17979  -0.76047   0.00000   8.299E-01   0.000E+00   1.701E-01
  29  5.90563485   0.770   0.69083   3.68260   6.18644  -0.74050   0.00000   8.001E-01   0.000E+00   1.999E-01
  30  5.91873743   0.770   0.67548   3.68278   6.19429  -0.71694   0.00000   7.560E-01   0.000E+00   2.440E-01
  31  5.93145626   0.770   0.65848   3.68297   6.20296  -0.69091   0.00000   7.011E-01   0.000E+00   2.989E-01
  32  5.94381318   0.770   0.63866   3.68317   6.21301  -0.66074   0.00000   6.263E-01   0.000E+00   3.737E-01
  33  5.95582821   0.770   0.61544   3.68338   6.22474  -0.62551   0.00000   5.250E-01   0.000E+00   4.750E-01
  34  5.96751977   0.770   0.58894   3.68356   6.23810  -0.58549   0.00000   4.022E-01   0.000E+00   5.978E-01
  35  5.97890482   0.770   0.55993   3.68372   6.25260  -0.54197   0.00000   2.739E-01   0.000E+00   7.261E-01
  36  5.98999901   0.770   0.52965   3.68384   6.26765  -0.49676   0.00000   1.614E-01   0.000E+00   8.386E-01
  37  6.00081685   0.770   0.49953   3.68389   6.28260  -0.45201   0.00000   8.588E-02   0.000E+00   9.141E-01
  38  6.01137176   0.770   0.47053   3.68389   6.29679  -0.40941   0.00000   3.981E-02   0.000E+00   9.602E-01
  39  6.02167622   0.770   0.44355   3.68384   6.30990  -0.37003   0.00000   1.917E-02   0.000E+00   9.808E-01
  40  6.03174185   0.770   0.41833   3.68376   6.32207  -0.33342   0.00000   9.464E-03   0.000E+00   9.905E-01
  41  6.04157945   0.770   0.39481   3.68364   6.33337  -0.29947   0.00000   4.000E-03   0.000E+00   9.960E-01
  42  6.06230966   0.770   0.34917   3.68334   6.35514  -0.23402   0.00000   1.000E-03   0.000E+00   9.990E-01
  43  6.08209527   0.770   0.30927   3.68301   6.37404  -0.17719   0.00000   0.000E+00   0.000E+00   1.000E+00
  44  6.10101863   0.770   0.27398   3.68267   6.39067  -0.12719   0.00000   0.000E+00   0.000E+00   1.000E+00
  45  6.11915176   0.770   0.24228   3.68233   6.40556  -0.08242   0.00000   0.000E+00   0.000E+00   1.000E+00
  46  6.13655802   0.770   0.21370   3.68199   6.41891  -0.04224   0.00000   0.000E+00   0.000E+00   1.000E+00
  47  6.15329345   0.770   0.18740   3.68165   6.43118  -0.00535   0.00000   0.000E+00   0.000E+00   1.000E+00
  48  6.16940784   0.770   0.16340   3.68134   6.44233   0.02820   0.00000   0.000E+00   0.000E+00   1.000E+00
  49  6.18494564   0.770   0.14107   3.68103   6.45267   0.05935   0.00000   0.000E+00   0.000E+00   1.000E+00
  50  6.19994670   0.770   0.12024   3.68072   6.46230   0.08833   0.00000   0.000E+00   0.000E+00   1.000E+00
  51  6.21444685   0.770   0.10072   3.68042   6.47129   0.11540   0.00000   0.000E+00   0.000E+00   1.000E+00
  52  6.22847847   0.770   0.08238   3.68013   6.47973   0.14079   0.00000   0.000E+00   0.000E+00   1.000E+00
  53  6.24207090   0.770   0.06508   3.67984   6.48767   0.16470   0.00000   0.000E+00   0.000E+00   1.000E+00
  54  6.25525080   0.770   0.04868   3.67956   6.49513   0.18736   0.00000   0.000E+00   0.000E+00   1.000E+00
  55  6.26804246   0.770   0.03309   3.67929   6.50212   0.20897   0.00000   0.000E+00   0.000E+00   1.000E+00
  56  6.28046812   0.770   0.01818   3.67901   6.50869   0.22969   0.00000   0.000E+00   0.000E+00   1.000E+00
  57  6.29254813   0.770   0.00413   3.67875   6.51478   0.24931   0.00000   0.000E+00   0.000E+00   1.000E+00
  58  6.30430121   0.770  -0.00934   3.67850   6.52055   0.26820   0.00000   0.000E+00   0.000E+00   1.000E+00
  59  6.31574458   0.770  -0.02233   3.67824   6.52605   0.28650   0.00000   0.000E+00   0.000E+00   1.000E+00
  60  6.32689415   0.770  -0.03476   3.67799   6.53124   0.30405   0.00000   0.000E+00   0.000E+00   1.000E+00
  61  6.33776464   0.770  -0.04661   3.67775   6.53614   0.32090   0.00000   0.000E+00   0.000E+00   1.000E+00
  62  6.34836966   0.770  -0.05818   3.67752   6.54089   0.33739   0.00000   0.000E+00   0.000E+00   1.000E+00
  63  6.35872188   0.770  -0.06917   3.67728   6.54534   0.35311   0.00000   0.000E+00   0.000E+00   1.000E+00
  64  6.36883306   0.770  -0.07986   3.67705   6.54965   0.36848   0.00000   0.000E+00   0.000E+00   1.000E+00
  65  6.37871419   0.770  -0.09015   3.67683   6.55378   0.38337   0.00000   0.000E+00   0.000E+00   1.000E+00
  66  6.38837549   0.770  -0.10006   3.67661   6.55773   0.39778   0.00000   0.000E+00   0.000E+00   1.000E+00
  67  6.39782654   0.770  -0.10971   3.67640   6.56156   0.41188   0.00000   0.000E+00   0.000E+00   1.000E+00
  68  6.40707629   0.770  -0.11897   3.67620   6.56522   0.42548   0.00000   0.000E+00   0.000E+00   1.000E+00
  69  6.41613313   0.770  -0.12803   3.67599   6.56878   0.43883   0.00000   0.000E+00   0.000E+00   1.000E+00
  70  6.42500496   0.770  -0.13675   3.67580   6.57220   0.45176   0.00000   0.000E+00   0.000E+00   1.000E+00
  71  6.43369917   0.770  -0.14524   3.67561   6.57551   0.46440   0.00000   0.000E+00   0.000E+00   1.000E+00
  72  6.44222274   0.770  -0.15353   3.67542   6.57874   0.47679   0.00000   0.000E+00   0.000E+00   1.000E+00
  73  6.45058224   0.770  -0.16147   3.67524   6.58183   0.48876   0.00000   0.000E+00   0.000E+00   1.000E+00
  74  6.45878386   0.770  -0.16941   3.67506   6.58491   0.50071   0.00000   0.000E+00   0.000E+00   1.000E+00
  75  6.46683347   0.770  -0.17685   3.67488   6.58780   0.51204   0.00000   0.000E+00   0.000E+00   1.000E+00
  76  6.47473659   0.770  -0.18429   3.67471   6.59068   0.52337   0.00000   0.000E+00   0.000E+00   1.000E+00
  77  6.48249845   0.770  -0.19148   3.67455   6.59346   0.53440   0.00000   0.000E+00   0.000E+00   1.000E+00
  78  6.49012403   0.770  -0.19844   3.67439   6.59614   0.54513   0.00000   0.000E+00   0.000E+00   1.000E+00
  79  6.49761802   0.770  -0.20539   3.67423   6.59883   0.55586   0.00000   0.000E+00   0.000E+00   1.000E+00
  80  6.50498489   0.770  -0.21196   3.67408   6.60137   0.56613   0.00000   0.000E+00   0.000E+00   1.000E+00
  81  6.51222887   0.770  -0.21845   3.67393   6.60389   0.57629   0.00000   0.000E+00   0.000E+00   1.000E+00
  82  6.51935401   0.770  -0.22494   3.67378   6.60640   0.58646   0.00000   0.000E+00   0.000E+00   1.000E+00
  83  6.52636413   0.770  -0.23102   3.67364   6.60876   0.59611   0.00000   0.000E+00   0.000E+00   1.000E+00
  84  6.53326290   0.770  -0.23707   3.67350   6.61111   0.60573   0.00000   0.000E+00   0.000E+00   1.000E+00
  85  6.54005379   0.770  -0.24312   3.67337   6.61346   0.61534   0.00000   0.000E+00   0.000E+00   1.000E+00
  86  6.54674013   0.770  -0.24881   3.67324   6.61568   0.62452   0.00000   0.000E+00   0.000E+00   1.000E+00
  87  6.55332508   0.770  -0.25444   3.67311   6.61788   0.63363   0.00000   0.000E+00   0.000E+00   1.000E+00
  88  6.55981168   0.770  -0.26007   3.67299   6.62008   0.64274   0.00000   0.000E+00   0.000E+00   1.000E+00
  89  6.56620282   0.770  -0.26548   3.67287   6.62220   0.65158   0.00000   0.000E+00   0.000E+00   1.000E+00
  90  6.57250127   0.770  -0.27071   3.67275   6.62427   0.66020   0.00000   0.000E+00   0.000E+00   1.000E+00
  91  6.57870968   0.770  -0.27595   3.67264   6.62633   0.66883   0.00000   0.000E+00   0.000E+00   1.000E+00
  92  6.58483058   0.770  -0.28118   3.67253   6.62839   0.67745   0.00000   0.000E+00   0.000E+00   1.000E+00
  93  6.59086642   0.770  -0.28604   3.67243   6.63033   0.68561   0.00000   0.000E+00   0.000E+00   1.000E+00
  94  6.59681952   0.770  -0.29089   3.67233   6.63227   0.69377   0.00000   0.000E+00   0.000E+00   1.000E+00
  95  6.60269212   0.770  -0.29575   3.67222   6.63420   0.70193   0.00000   0.000E+00   0.000E+00   1.000E+00
  96  6.60848637   0.770  -0.30054   3.67212   6.63612   0.71001   0.00000   0.000E+00   0.000E+00   1.000E+00
  97  6.61420432   0.770  -0.30503   3.67203   6.63794   0.71774   0.00000   0.000E+00   0.000E+00   1.000E+00
  98  6.61984798   0.770  -0.30952   3.67194   6.63976   0.72546   0.00000   0.000E+00   0.000E+00   1.000E+00
  99  6.62541923   0.770  -0.31402   3.67185   6.64158   0.73318   0.00000   0.000E+00   0.000E+00   1.000E+00
 100  6.63091992   0.770  -0.31848   3.67176   6.64339   0.74087   0.00000   0.000E+00   0.000E+00   1.000E+00
 101  6.63635181   0.770  -0.32263   3.67169   6.64510   0.74818   0.00000   0.000E+00   0.000E+00   1.000E+00
 102  6.64171659   0.770  -0.32677   3.67161   6.64680   0.75548   0.00000   0.000E+00   0.000E+00   1.000E+00
 103  6.64701592   0.770  -0.33092   3.67154   6.64851   0.76278   0.00000   0.000E+00   0.000E+00   1.000E+00
 104  6.65225136   0.770  -0.33506   3.67146   6.65022   0.77009   0.00000   0.000E+00   0.000E+00   1.000E+00
 105  6.65742444   0.770  -0.33897   3.67139   6.65186   0.77711   0.00000   0.000E+00   0.000E+00   1.000E+00
 106  6.66253662   0.770  -0.34280   3.67133   6.65347   0.78402   0.00000   0.000E+00   0.000E+00   1.000E+00
 107  6.66758933   0.770  -0.34662   3.67126   6.65508   0.79094   0.00000   0.000E+00   0.000E+00   1.000E+00
 108  6.67258392   0.770  -0.35045   3.67120   6.65669   0.79786   0.00000   0.000E+00   0.000E+00   1.000E+00
 109  6.67752173   0.770  -0.35423   3.67113   6.65828   0.80473   0.00000   0.000E+00   0.000E+00   1.000E+00
 110  6.68240403   0.770  -0.35775   3.67108   6.65980   0.81128   0.00000   0.000E+00   0.000E+00   1.000E+00
 111  6.68723205   0.770  -0.36127   3.67103   6.66132   0.81784   0.00000   0.000E+00   0.000E+00   1.000E+00
 112  6.69200699   0.770  -0.36478   3.67098   6.66284   0.82439   0.00000   0.000E+00   0.000E+00   1.000E+00
 113  6.69673000   0.770  -0.36830   3.67093   6.66436   0.83094   0.00000   0.000E+00   0.000E+00   1.000E+00
 114  6.70140220   0.770  -0.37174   3.67088   6.66586   0.83740   0.00000   0.000E+00   0.000E+00   1.000E+00
 115  6.70602467   0.770  -0.37498   3.67084   6.66729   0.84362   0.00000   0.000E+00   0.000E+00   1.000E+00
 116  6.71059846   0.770  -0.37821   3.67080   6.66873   0.84983   0.00000   0.000E+00   0.000E+00   1.000E+00
 117  6.71512458   0.770  -0.38144   3.67076   6.67017   0.85604   0.00000   0.000E+00   0.000E+00   1.000E+00
 118  6.71960401   0.770  -0.38467   3.67072   6.67161   0.86225   0.00000   0.000E+00   0.000E+00   1.000E+00
 119  6.72403772   0.770  -0.38787   3.67069   6.67304   0.86842   0.00000   0.000E+00   0.000E+00   1.000E+00
 120  6.72842661   0.770  -0.39084   3.67066   6.67440   0.87432   0.00000   0.000E+00   0.000E+00   1.000E+00
 121  6.73277160   0.770  -0.39380   3.67063   6.67576   0.88021   0.00000   0.000E+00   0.000E+00   1.000E+00
 122  6.73707355   0.770  -0.39677   3.67060   6.67713   0.88611   0.00000   0.000E+00   0.000E+00   1.000E+00
 123  6.74133330   0.770  -0.39974   3.67057   6.67849   0.89200   0.00000   0.000E+00   0.000E+00   1.000E+00
 124  6.74555168   0.770  -0.40271   3.67055   6.67985   0.89790   0.00000   0.000E+00   0.000E+00   1.000E+00
 125  6.74972947   0.770  -0.40549   3.67053   6.68117   0.90358   0.00000   0.000E+00   0.000E+00   1.000E+00
 126  6.75386746   0.770  -0.40822   3.67051   6.68246   0.90918   0.00000   0.000E+00   0.000E+00   1.000E+00
 127  6.75796640   0.770  -0.41094   3.67049   6.68375   0.91478   0.00000   0.000E+00   0.000E+00   1.000E+00
 128  6.76202701   0.770  -0.41367   3.67047   6.68505   0.92038   0.00000   0.000E+00   0.000E+00   1.000E+00
 129  6.76605000   0.770  -0.41639   3.67045   6.68634   0.92598   0.00000   0.000E+00   0.000E+00   1.000E+00
 130  6.77003607   0.770  -0.41911   3.67043   6.68763   0.93157   0.00000   6.072E-06   0.000E+00   1.000E+00
 131  6.77398589   0.770  -0.42159   3.67043   6.68887   0.93690   0.00000   1.727E-04   0.000E+00   9.998E-01
 132  6.77790011   0.770  -0.42408   3.67042   6.69010   0.94223   0.00000   3.393E-04   0.000E+00   9.997E-01
 133  6.78177936   0.770  -0.42656   3.67042   6.69133   0.94756   0.00000   5.059E-04   0.000E+00   9.995E-01
 134  6.78562427   0.770  -0.42905   3.67042   6.69256   0.95289   0.00000   6.725E-04   0.000E+00   9.993E-01
 135  6.78943544   0.770  -0.43153   3.67041   6.69379   0.95822   0.00000   8.392E-04   0.000E+00   9.992E-01
 136  6.79321346   0.770  -0.43401   3.67041   6.69502   0.96354   0.00000   1.000E-03   0.000E+00   9.990E-01
 137  6.79695889   0.770  -0.43627   3.67042   6.69619   0.96861   0.00000   1.000E-03   0.000E+00   9.990E-01
 138  6.80067230   0.770  -0.43854   3.67042   6.69737   0.97368   0.00000   1.000E-03   0.000E+00   9.990E-01
 139  6.80435422   0.770  -0.44080   3.67043   6.69854   0.97876   0.00000   1.000E-03   0.000E+00   9.990E-01
 140  6.80800519   0.770  -0.44306   3.67044   6.69971   0.98383   0.00000   1.000E-03   0.000E+00   9.990E-01
 141  6.81162573   0.770  -0.44533   3.67044   6.70089   0.98891   0.00000   1.000E-03   0.000E+00   9.990E-01
 142  6.81521633   0.770  -0.44759   3.67045   6.70206   0.99398   0.00000   1.000E-03   0.000E+00   9.990E-01
 143  6.81877749   0.770  -0.44970   3.67046   6.70320   0.99888   0.00000   1.000E-03   0.000E+00   9.990E-01
 144  6.82230968   0.770  -0.45176   3.67048   6.70432   1.00372   0.00000   1.000E-03   0.000E+00   9.990E-01
 145  6.82581338   0.770  -0.45382   3.67050   6.70544   1.00855   0.00000   1.000E-03   0.000E+00   9.990E-01
 146  6.82928904   0.770  -0.45588   3.67052   6.70657   1.01339   0.00000   1.000E-03   0.000E+00   9.990E-01
 147  6.83273710   0.770  -0.45794   3.67054   6.70769   1.01822   0.00000   1.000E-03   0.000E+00   9.990E-01
 148  6.83615801   0.770  -0.46000   3.67055   6.70881   1.02306   0.00000   1.000E-03   0.000E+00   9.990E-01
 149  6.83955218   0.770  -0.46203   3.67057   6.70993   1.02787   0.00000   1.000E-03   0.000E+00   9.990E-01
 150  6.84292002   0.770  -0.46390   3.67060   6.71101   1.03249   0.00000   1.000E-03   0.000E+00   9.990E-01
 151  6.84626195   0.770  -0.46576   3.67063   6.71208   1.03710   0.00000   1.000E-03   0.000E+00   9.990E-01
 152  6.84957836   0.770  -0.46763   3.67065   6.71316   1.04171   0.00000   1.000E-03   0.000E+00   9.990E-01
 153  6.85286964   0.770  -0.46949   3.67068   6.71423   1.04633   0.00000   1.000E-03   0.000E+00   9.990E-01
 154  6.85613616   0.770  -0.47135   3.67071   6.71531   1.05094   0.00000   1.000E-03   0.000E+00   9.990E-01
 155  6.85937830   0.770  -0.47322   3.67074   6.71638   1.05556   0.00000   1.000E-03   0.000E+00   9.990E-01
 156  6.86259641   0.770  -0.47505   3.67077   6.71745   1.06014   0.00000   1.000E-03   0.000E+00   9.990E-01
 157  6.86579085   0.770  -0.47673   3.67081   6.71848   1.06454   0.00000   1.000E-03   0.000E+00   9.990E-01
 158  6.86896197   0.770  -0.47842   3.67085   6.71951   1.06895   0.00000   1.000E-03   0.000E+00   9.990E-01
 159  6.87211010   0.770  -0.48010   3.67089   6.72054   1.07336   0.00000   1.000E-03   0.000E+00   9.990E-01
 160  6.87523557   0.770  -0.48178   3.67093   6.72158   1.07776   0.00000   1.000E-03   0.000E+00   9.990E-01
 161  6.87833871   0.770  -0.48346   3.67097   6.72261   1.08217   0.00000   1.000E-03   0.000E+00   9.990E-01
 162  6.88141983   0.770  -0.48514   3.67101   6.72364   1.08658   0.00000   1.000E-03   0.000E+00   9.990E-01
 163  6.88447925   0.770  -0.48682   3.67105   6.72467   1.09098   0.00000   1.000E-03   0.000E+00   9.990E-01
 164  6.88751727   0.770  -0.48835   3.67109   6.72567   1.09522   0.00000   1.118E-03   0.000E+00   9.989E-01
 165  6.89053419   0.770  -0.48986   3.67114   6.72666   1.09944   0.00000   1.249E-03   0.000E+00   9.988E-01
 166  6.89353029   0.770  -0.49136   3.67119   6.72765   1.10366   0.00000   1.381E-03   0.000E+00   9.986E-01
 167  6.89650586   0.770  -0.49287   3.67124   6.72864   1.10787   0.00000   1.512E-03   0.000E+00   9.985E-01
 168  6.89946118   0.770  -0.49438   3.67129   6.72964   1.11209   0.00000   1.644E-03   0.000E+00   9.984E-01
 169  6.90239653   0.770  -0.49589   3.67134   6.73063   1.11631   0.00000   1.776E-03   0.000E+00   9.982E-01
 170  6.90531218   0.770  -0.49740   3.67139   6.73162   1.12053   0.00000   1.907E-03   0.000E+00   9.981E-01
 171  6.90820837   0.770  -0.49886   3.67145   6.73260   1.12469   0.00000   2.000E-03   0.000E+00   9.980E-01
 172  6.91108539   0.770  -0.50020   3.67151   6.73356   1.12873   0.00000   2.000E-03   0.000E+00   9.980E-01
 173  6.91394347   0.770  -0.50155   3.67157   6.73451   1.13277   0.00000   2.000E-03   0.000E+00   9.980E-01
 174  6.91678286   0.770  -0.50289   3.67163   6.73547   1.13681   0.00000   2.000E-03   0.000E+00   9.980E-01
 175  6.91960381   0.770  -0.50424   3.67168   6.73642   1.14085   0.00000   2.000E-03   0.000E+00   9.980E-01
 176  6.92240655   0.770  -0.50558   3.67174   6.73738   1.14489   0.00000   2.000E-03   0.000E+00   9.980E-01
 177  6.92519133   0.770  -0.50693   3.67180   6.73833   1.14893   0.00000   2.000E-03   0.000E+00   9.980E-01
 178  6.92795836   0.770  -0.50827   3.67186   6.73929   1.15297   0.00000   2.000E-03   0.000E+00   9.980E-01
 179  6.93070787   0.770  -0.50956   3.67193   6.74023   1.15695   0.00000   2.000E-03   0.000E+00   9.980E-01
 180  6.93344008   0.770  -0.51075   3.67200   6.74116   1.16082   0.00000   2.000E-03   0.000E+00   9.980E-01
 181  6.93615522   0.770  -0.51194   3.67207   6.74208   1.16469   0.00000   2.000E-03   0.000E+00   9.980E-01
 182  6.93885348   0.770  -0.51313   3.67214   6.74300   1.16856   0.00000   2.000E-03   0.000E+00   9.980E-01
 183  6.94153509   0.770  -0.51432   3.67221   6.74392   1.17244   0.00000   2.000E-03   0.000E+00   9.980E-01
 184  6.94420023   0.770  -0.51551   3.67228   6.74485   1.17631   0.00000   2.000E-03   0.000E+00   9.980E-01
 185  6.94684912   0.770  -0.51670   3.67235   6.74577   1.18018   0.00000   2.000E-03   0.000E+00   9.980E-01
 186  6.94948196   0.770  -0.51789   3.67243   6.74669   1.18405   0.00000   2.000E-03   0.000E+00   9.980E-01
 187  6.95209892   0.770  -0.51906   3.67250   6.74761   1.18791   0.00000   2.010E-03   0.000E+00   9.980E-01
 188  6.95470022   0.770  -0.52011   3.67258   6.74850   1.19163   0.00000   2.127E-03   0.000E+00   9.979E-01
 189  6.95728602   0.770  -0.52115   3.67266   6.74940   1.19535   0.00000   2.243E-03   0.000E+00   9.978E-01
 190  6.95985652   0.770  -0.52220   3.67274   6.75029   1.19907   0.00000   2.359E-03   0.000E+00   9.976E-01
 191  6.96241190   0.770  -0.52324   3.67282   6.75119   1.20278   0.00000   2.475E-03   0.000E+00   9.975E-01
 192  6.96495232   0.770  -0.52429   3.67290   6.75208   1.20650   0.00000   2.591E-03   0.000E+00   9.974E-01
 193  6.96747798   0.770  -0.52534   3.67298   6.75298   1.21022   0.00000   2.707E-03   0.000E+00   9.973E-01
 194  6.96998903   0.770  -0.52638   3.67306   6.75387   1.21394   0.00000   2.823E-03   0.000E+00   9.972E-01
 195  6.97248564   0.770  -0.52743   3.67314   6.75476   1.21766   0.00000   2.940E-03   0.000E+00   9.971E-01
 196  6.97496799   0.770  -0.52840   3.67322   6.75565   1.22130   0.00000   3.054E-03   0.000E+00   9.969E-01
 197  6.97743622   0.770  -0.52931   3.67331   6.75651   1.22488   0.00000   3.165E-03   0.000E+00   9.968E-01
 198  6.97989051   0.770  -0.53021   3.67340   6.75738   1.22845   0.00000   3.277E-03   0.000E+00   9.967E-01
 199  6.98233101   0.770  -0.53111   3.67349   6.75825   1.23203   0.00000   3.389E-03   0.000E+00   9.966E-01
 200  6.98475787   0.770  -0.53202   3.67359   6.75912   1.23560   0.00000   3.500E-03   0.000E+00   9.965E-01
 201  6.98717124   0.770  -0.53292   3.67368   6.75999   1.23918   0.00000   3.612E-03   0.000E+00   9.964E-01
 202  6.98957127   0.770  -0.53383   3.67377   6.76085   1.24275   0.00000   3.724E-03   0.000E+00   9.963E-01
 203  6.99195812   0.770  -0.53473   3.67386   6.76172   1.24633   0.00000   3.836E-03   0.000E+00   9.962E-01
 204  6.99433192   0.770  -0.53563   3.67395   6.76259   1.24990   0.00000   3.947E-03   0.000E+00   9.961E-01
 205  6.99669281   0.770  -0.53647   3.67404   6.76345   1.25341   0.00000   4.000E-03   0.000E+00   9.960E-01
 206  6.99904094   0.770  -0.53724   3.67415   6.76429   1.25685   0.00000   4.000E-03   0.000E+00   9.960E-01
 207  7.00137645   0.770  -0.53801   3.67425   6.76513   1.26029   0.00000   4.000E-03   0.000E+00   9.960E-01
 208  7.00369945   0.770  -0.53878   3.67435   6.76598   1.26373   0.00000   4.000E-03   0.000E+00   9.960E-01
 209  7.00601010   0.770  -0.53955   3.67445   6.76682   1.26717   0.00000   4.000E-03   0.000E+00   9.960E-01
 210  7.00830853   0.770  -0.54032   3.67456   6.76767   1.27061   0.00000   4.000E-03   0.000E+00   9.960E-01
 211  7.01059485   0.770  -0.54109   3.67466   6.76851   1.27405   0.00000   4.000E-03   0.000E+00   9.960E-01
 212  7.01286920   0.770  -0.54186   3.67476   6.76935   1.27750   0.00000   4.000E-03   0.000E+00   9.960E-01
 213  7.01513170   0.770  -0.54263   3.67486   6.77020   1.28094   0.00000   4.000E-03   0.000E+00   9.960E-01
 214  7.01738247   0.770  -0.54337   3.67497   6.77104   1.28435   0.00000   4.025E-03   0.000E+00   9.960E-01
 215  7.01962164   0.770  -0.54402   3.67508   6.77186   1.28767   0.00000   4.129E-03   0.000E+00   9.959E-01
 216  7.02184932   0.770  -0.54466   3.67519   6.77268   1.29098   0.00000   4.232E-03   0.000E+00   9.958E-01
 217  7.02406564   0.770  -0.54531   3.67530   6.77350   1.29430   0.00000   4.336E-03   0.000E+00   9.957E-01
 218  7.02627070   0.770  -0.54595   3.67541   6.77432   1.29762   0.00000   4.440E-03   0.000E+00   9.956E-01
 219  7.02846462   0.770  -0.54660   3.67552   6.77514   1.30094   0.00000   4.544E-03   0.000E+00   9.955E-01
 220  7.03064752   0.770  -0.54724   3.67563   6.77596   1.30425   0.00000   4.648E-03   0.000E+00   9.954E-01
 221  7.03281950   0.770  -0.54789   3.67574   6.77678   1.30757   0.00000   4.752E-03   0.000E+00   9.952E-01
 222  7.03498067   0.770  -0.54853   3.67586   6.77761   1.31089   0.00000   4.855E-03   0.000E+00   9.951E-01
 223  7.03713114   0.770  -0.54918   3.67597   6.77843   1.31421   0.00000   4.959E-03   0.000E+00   9.950E-01
 224  7.03927101   0.770  -0.54975   3.67608   6.77924   1.31745   0.00000   5.061E-03   0.000E+00   9.949E-01
 225  7.04140039   0.770  -0.55027   3.67621   6.78004   1.32065   0.00000   5.161E-03   0.000E+00   9.948E-01
 226  7.04351938   0.770  -0.55080   3.67633   6.78084   1.32385   0.00000   5.262E-03   0.000E+00   9.947E-01
 227  7.04562808   0.770  -0.55133   3.67645   6.78164   1.32704   0.00000   5.362E-03   0.000E+00   9.946E-01
 228  7.04772660   0.770  -0.55185   3.67657   6.78244   1.33024   0.00000   5.462E-03   0.000E+00   9.945E-01
 229  7.04981502   0.770  -0.55238   3.67670   6.78324   1.33344   0.00000   5.563E-03   0.000E+00   9.944E-01
 230  7.05189345   0.770  -0.55290   3.67682   6.78405   1.33664   0.00000   5.663E-03   0.000E+00   9.943E-01
 231  7.05396197   0.770  -0.55343   3.67694   6.78485   1.33983   0.00000   5.763E-03   0.000E+00   9.942E-01
 232  7.05602070   0.770  -0.55396   3.67706   6.78565   1.34303   0.00000   5.864E-03   0.000E+00   9.941E-01
 233  7.05806971   0.770  -0.55448   3.67719   6.78645   1.34623   0.00000   5.964E-03   0.000E+00   9.940E-01
 234  7.06010909   0.770  -0.55493   3.67732   6.78724   1.34936   0.00000   6.126E-03   0.000E+00   9.939E-01
 235  7.06213895   0.770  -0.55533   3.67745   6.78803   1.35244   0.00000   6.322E-03   0.000E+00   9.937E-01
 236  7.06415936   0.770  -0.55574   3.67758   6.78881   1.35553   0.00000   6.519E-03   0.000E+00   9.935E-01
 237  7.06617042   0.770  -0.55614   3.67772   6.78959   1.35862   0.00000   6.715E-03   0.000E+00   9.933E-01
 238  7.06817220   0.770  -0.55654   3.67785   6.79038   1.36170   0.00000   6.912E-03   0.000E+00   9.931E-01
 239  7.07016481   0.770  -0.55695   3.67798   6.79116   1.36479   0.00000   7.109E-03   0.000E+00   9.929E-01
 240  7.07214831   0.770  -0.55735   3.67812   6.79195   1.36788   0.00000   7.305E-03   0.000E+00   9.927E-01
 241  7.07412279   0.770  -0.55776   3.67825   6.79273   1.37096   0.00000   7.502E-03   0.000E+00   9.925E-01
 242  7.07608834   0.770  -0.55816   3.67838   6.79352   1.37405   0.00000   7.698E-03   0.000E+00   9.923E-01
 243  7.07804503   0.770  -0.55856   3.67852   6.79430   1.37714   0.00000   7.895E-03   0.000E+00   9.921E-01
 244  7.07999295   0.770  -0.55892   3.67866   6.79508   1.38018   0.00000   8.045E-03   0.000E+00   9.920E-01
 245  7.08193216   0.770  -0.55921   3.67880   6.79584   1.38316   0.00000   8.143E-03   0.000E+00   9.919E-01
 246  7.08386276   0.770  -0.55950   3.67894   6.79661   1.38615   0.00000   8.240E-03   0.000E+00   9.918E-01
 247  7.08578481   0.770  -0.55979   3.67909   6.79738   1.38913   0.00000   8.337E-03   0.000E+00   9.917E-01
 248  7.08769840   0.770  -0.56009   3.67923   6.79814   1.39211   0.00000   8.434E-03   0.000E+00   9.916E-01
 249  7.08960359   0.770  -0.56038   3.67938   6.79891   1.39510   0.00000   8.532E-03   0.000E+00   9.915E-01
 250  7.09150046   0.770  -0.56067   3.67952   6.79968   1.39808   0.00000   8.629E-03   0.000E+00   9.914E-01
 251  7.09338907   0.770  -0.56097   3.67966   6.80044   1.40107   0.00000   8.726E-03   0.000E+00   9.913E-01
 252  7.09526952   0.770  -0.56126   3.67981   6.80121   1.40405   0.00000   8.824E-03   0.000E+00   9.912E-01
 253  7.09714185   0.770  -0.56155   3.67995   6.80198   1.40704   0.00000   8.921E-03   0.000E+00   9.911E-01
 254  7.09900615   0.770  -0.56183   3.68010   6.80274   1.41000   0.00000   9.036E-03   0.000E+00   9.910E-01
 255  7.10086248   0.770  -0.56202   3.68025   6.80349   1.41289   0.00000   9.229E-03   0.000E+00   9.908E-01
 256  7.10271090   0.770  -0.56221   3.68041   6.80424   1.41578   0.00000   9.422E-03   0.000E+00   9.906E-01
 257  7.10455150   0.770  -0.56240   3.68056   6.80500   1.41867   0.00000   9.615E-03   0.000E+00   9.904E-01
 258  7.10638432   0.770  -0.56259   3.68072   6.80575   1.42156   0.00000   9.807E-03   0.000E+00   9.902E-01
 259  7.10820945   0.770  -0.56278   3.68087   6.80650   1.42445   0.00000   1.000E-02   0.000E+00   9.900E-01
 260  7.11002693   0.770  -0.56297   3.68102   6.80725   1.42734   0.00000   1.019E-02   0.000E+00   9.898E-01
 261  7.11183684   0.770  -0.56315   3.68118   6.80800   1.43022   0.00000   1.039E-02   0.000E+00   9.896E-01
 262  7.11363924   0.770  -0.56334   3.68133   6.80876   1.43311   0.00000   1.058E-02   0.000E+00   9.894E-01
 263  7.11543419   0.770  -0.56353   3.68149   6.80951   1.43600   0.00000   1.077E-02   0.000E+00   9.892E-01
 264  7.11722176   0.770  -0.56372   3.68164   6.81026   1.43889   0.00000   1.096E-02   0.000E+00   9.890E-01
 265  7.11900199   0.770  -0.56383   3.68180   6.81100   1.44171   0.00000   1.116E-02   0.000E+00   9.888E-01
 266  7.12077496   0.770  -0.56393   3.68197   6.81174   1.44451   0.00000   1.135E-02   0.000E+00   9.887E-01
 267  7.12254072   0.770  -0.56402   3.68213   6.81248   1.44731   0.00000   1.154E-02   0.000E+00   9.885E-01
 268  7.12429933   0.770  -0.56411   3.68230   6.81322   1.45011   0.00000   1.173E-02   0.000E+00   9.883E-01
 269  7.12605084   0.770  -0.56420   3.68246   6.81396   1.45291   0.00000   1.192E-02   0.000E+00   9.881E-01
 270  7.12779532   0.770  -0.56429   3.68262   6.81470   1.45571   0.00000   1.211E-02   0.000E+00   9.879E-01
 271  7.12953282   0.770  -0.56438   3.68279   6.81544   1.45851   0.00000   1.230E-02   0.000E+00   9.877E-01
 272  7.13126340   0.770  -0.56448   3.68295   6.81618   1.46131   0.00000   1.249E-02   0.000E+00   9.875E-01
 273  7.13298711   0.770  -0.56457   3.68312   6.81692   1.46412   0.00000   1.268E-02   0.000E+00   9.873E-01
 274  7.13470401   0.770  -0.56466   3.68328   6.81766   1.46692   0.00000   1.287E-02   0.000E+00   9.871E-01
 275  7.13641414   0.770  -0.56472   3.68345   6.81840   1.46969   0.00000   1.306E-02   0.000E+00   9.869E-01
 276  7.13811757   0.770  -0.56472   3.68363   6.81913   1.47241   0.00000   1.325E-02   0.000E+00   9.867E-01
 277  7.13981434   0.770  -0.56473   3.68380   6.81986   1.47513   0.00000   1.344E-02   0.000E+00   9.866E-01
 278  7.14150450   0.770  -0.56473   3.68398   6.82059   1.47785   0.00000   1.363E-02   0.000E+00   9.864E-01
 279  7.14318812   0.770  -0.56473   3.68415   6.82132   1.48057   0.00000   1.382E-02   0.000E+00   9.862E-01
 280  7.14486523   0.770  -0.56474   3.68433   6.82205   1.48329   0.00000   1.401E-02   0.000E+00   9.860E-01
 281  7.14653590   0.770  -0.56474   3.68450   6.82278   1.48601   0.00000   1.420E-02   0.000E+00   9.858E-01
 282  7.14820016   0.770  -0.56474   3.68468   6.82351   1.48873   0.00000   1.439E-02   0.000E+00   9.856E-01
 283  7.14985806   0.770  -0.56474   3.68485   6.82424   1.49145   0.00000   1.458E-02   0.000E+00   9.854E-01
 284  7.15150966   0.770  -0.56475   3.68503   6.82497   1.49417   0.00000   1.477E-02   0.000E+00   9.852E-01
 285  7.15315501   0.770  -0.56475   3.68521   6.82570   1.49689   0.00000   1.496E-02   0.000E+00   9.850E-01
 286  7.15479414   0.770  -0.56469   3.68539   6.82642   1.49955   0.00000   1.523E-02   0.000E+00   9.848E-01
 287  7.15642712   0.770  -0.56462   3.68557   6.82714   1.50220   0.00000   1.551E-02   0.000E+00   9.845E-01
 288  7.15805397   0.770  -0.56454   3.68575   6.82786   1.50485   0.00000   1.579E-02   0.000E+00   9.842E-01
 289  7.15967475   0.770  -0.56447   3.68593   6.82858   1.50749   0.00000   1.607E-02   0.000E+00   9.839E-01
 290  7.16128951   0.770  -0.56440   3.68611   6.82930   1.51014   0.00000   1.636E-02   0.000E+00   9.836E-01
 291  7.16289828   0.770  -0.56432   3.68629   6.83002   1.51279   0.00000   1.664E-02   0.000E+00   9.834E-01
 292  7.16450112   0.770  -0.56425   3.68648   6.83074   1.51543   0.00000   1.692E-02   0.000E+00   9.831E-01
 293  7.16609807   0.770  -0.56418   3.68666   6.83146   1.51808   0.00000   1.720E-02   0.000E+00   9.828E-01
 294  7.16768916   0.770  -0.56410   3.68684   6.83218   1.52073   0.00000   1.749E-02   0.000E+00   9.825E-01
 295  7.16927445   0.770  -0.56403   3.68702   6.83290   1.52337   0.00000   1.777E-02   0.000E+00   9.822E-01
 296  7.17085396   0.770  -0.56395   3.68720   6.83362   1.52601   0.00000   1.803E-02   0.000E+00   9.820E-01
 297  7.17242776   0.770  -0.56381   3.68739   6.83433   1.52858   0.00000   1.822E-02   0.000E+00   9.818E-01
 298  7.17399587   0.770  -0.56368   3.68758   6.83504   1.53116   0.00000   1.841E-02   0.000E+00   9.816E-01
 299  7.17555835   0.770  -0.56355   3.68776   6.83575   1.53373   0.00000   1.860E-02   0.000E+00   9.814E-01
 300  7.17711522   0.770  -0.56342   3.68795   6.83646   1.53630   0.00000   1.879E-02   0.000E+00   9.812E-01
 301  7.17866653   0.770  -0.56329   3.68814   6.83717   1.53888   0.00000   1.898E-02   0.000E+00   9.810E-01
 302  7.18021231   0.770  -0.56315   3.68832   6.83789   1.54145   0.00000   1.917E-02   0.000E+00   9.808E-01
 303  7.18175262   0.770  -0.56302   3.68851   6.83860   1.54403   0.00000   1.935E-02   0.000E+00   9.806E-01
 304  7.18328748   0.770  -0.56289   3.68870   6.83931   1.54660   0.00000   1.954E-02   0.000E+00   9.805E-01
 305  7.18481694   0.770  -0.56276   3.68888   6.84002   1.54918   0.00000   1.973E-02   0.000E+00   9.803E-01
 306  7.18634102   0.770  -0.56263   3.68907   6.84073   1.55175   0.00000   1.992E-02   0.000E+00   9.801E-01
 307  7.18785978   0.770  -0.56246   3.68926   6.84144   1.55429   0.00000   2.022E-02   0.000E+00   9.798E-01
 308  7.18937325   0.770  -0.56228   3.68945   6.84214   1.55679   0.00000   2.059E-02   0.000E+00   9.794E-01
 309  7.19088146   0.770  -0.56209   3.68964   6.84284   1.55930   0.00000   2.097E-02   0.000E+00   9.790E-01
 310  7.19238445   0.770  -0.56191   3.68983   6.84355   1.56181   0.00000   2.134E-02   0.000E+00   9.787E-01
 311  7.19388226   0.770  -0.56172   3.69002   6.84425   1.56431   0.00000   2.172E-02   0.000E+00   9.783E-01
 312  7.19537492   0.770  -0.56153   3.69021   6.84495   1.56682   0.00000   2.209E-02   0.000E+00   9.779E-01
 313  7.19686246   0.770  -0.56135   3.69040   6.84566   1.56932   0.00000   2.247E-02   0.000E+00   9.775E-01
 314  7.19834493   0.770  -0.56116   3.69059   6.84636   1.57183   0.00000   2.284E-02   0.000E+00   9.772E-01
 315  7.19982236   0.770  -0.56098   3.69078   6.84706   1.57434   0.00000   2.322E-02   0.000E+00   9.768E-01
 316  7.20129478   0.770  -0.56079   3.69097   6.84776   1.57684   0.00000   2.359E-02   0.000E+00   9.764E-01
 317  7.20276222   0.770  -0.56061   3.69116   6.84847   1.57935   0.00000   2.397E-02   0.000E+00   9.760E-01
 318  7.20422472   0.770  -0.56038   3.69136   6.84917   1.58179   0.00000   2.426E-02   0.000E+00   9.757E-01
 319  7.20568231   0.770  -0.56015   3.69155   6.84986   1.58423   0.00000   2.454E-02   0.000E+00   9.755E-01
 320  7.20713502   0.770  -0.55992   3.69174   6.85056   1.58666   0.00000   2.482E-02   0.000E+00   9.752E-01
 321  7.20858290   0.770  -0.55969   3.69193   6.85125   1.58910   0.00000   2.511E-02   0.000E+00   9.749E-01
 322  7.21002596   0.770  -0.55947   3.69212   6.85195   1.59154   0.00000   2.539E-02   0.000E+00   9.746E-01
 323  7.21146424   0.770  -0.55924   3.69232   6.85265   1.59397   0.00000   2.567E-02   0.000E+00   9.743E-01
 324  7.21289778   0.770  -0.55901   3.69251   6.85334   1.59641   0.00000   2.595E-02   0.000E+00   9.740E-01
 325  7.21432659   0.770  -0.55878   3.69270   6.85404   1.59885   0.00000   2.624E-02   0.000E+00   9.738E-01
 326  7.21575073   0.770  -0.55855   3.69289   6.85474   1.60128   0.00000   2.652E-02   0.000E+00   9.735E-01
 327  7.21717021   0.770  -0.55832   3.69309   6.85543   1.60372   0.00000   2.680E-02   0.000E+00   9.732E-01
 328  7.21858506   0.770  -0.55808   3.69328   6.85613   1.60614   0.00000   2.711E-02   0.000E+00   9.729E-01
 329  7.21999532   0.770  -0.55780   3.69347   6.85682   1.60851   0.00000   2.749E-02   0.000E+00   9.725E-01
 330  7.22140101   0.770  -0.55752   3.69367   6.85750   1.61088   0.00000   2.787E-02   0.000E+00   9.721E-01
 331  7.22280217   0.770  -0.55725   3.69387   6.85819   1.61326   0.00000   2.825E-02   0.000E+00   9.718E-01
 332  7.22419883   0.770  -0.55697   3.69406   6.85888   1.61563   0.00000   2.863E-02   0.000E+00   9.714E-01
 333  7.22559101   0.770  -0.55669   3.69426   6.85957   1.61800   0.00000   2.900E-02   0.000E+00   9.710E-01
 334  7.22697873   0.770  -0.55642   3.69445   6.86025   1.62038   0.00000   2.938E-02   0.000E+00   9.706E-01
 335  7.22836204   0.770  -0.55614   3.69465   6.86094   1.62275   0.00000   2.976E-02   0.000E+00   9.702E-01
 336  7.22974096   0.770  -0.55586   3.69484   6.86163   1.62512   0.00000   3.014E-02   0.000E+00   9.699E-01
 337  7.23111551   0.770  -0.55559   3.69504   6.86232   1.62750   0.00000   3.052E-02   0.000E+00   9.695E-01
 338  7.23248572   0.770  -0.55531   3.69523   6.86301   1.62987   0.00000   3.089E-02   0.000E+00   9.691E-01
 339  7.23385163   0.770  -0.55500   3.69543   6.86369   1.63220   0.00000   3.134E-02   0.000E+00   9.687E-01
 340  7.23521325   0.770  -0.55467   3.69563   6.86437   1.63451   0.00000   3.181E-02   0.000E+00   9.682E-01
 341  7.23657062   0.770  -0.55435   3.69584   6.86505   1.63682   0.00000   3.229E-02   0.000E+00   9.677E-01
 342  7.23792376   0.770  -0.55403   3.69604   6.86574   1.63914   0.00000   3.276E-02   0.000E+00   9.672E-01
 343  7.23927269   0.770  -0.55370   3.69624   6.86642   1.64145   0.00000   3.323E-02   0.000E+00   9.668E-01
 344  7.24061745   0.770  -0.55338   3.69644   6.86710   1.64376   0.00000   3.371E-02   0.000E+00   9.663E-01
 345  7.24195806   0.770  -0.55305   3.69664   6.86778   1.64607   0.00000   3.418E-02   0.000E+00   9.658E-01
 346  7.24329454   0.770  -0.55273   3.69684   6.86846   1.64839   0.00000   3.466E-02   0.000E+00   9.653E-01
 347  7.24462692   0.770  -0.55241   3.69704   6.86915   1.65070   0.00000   3.513E-02   0.000E+00   9.649E-01
 348  7.24595523   0.770  -0.55208   3.69724   6.86983   1.65301   0.00000   3.560E-02   0.000E+00   9.644E-01
 349  7.24727948   0.770  -0.55175   3.69744   6.87051   1.65531   0.00000   3.608E-02   0.000E+00   9.639E-01
 350  7.24859971   0.770  -0.55137   3.69765   6.87119   1.65757   0.00000   3.655E-02   0.000E+00   9.634E-01
 351  7.24991594   0.770  -0.55099   3.69786   6.87186   1.65982   0.00000   3.703E-02   0.000E+00   9.630E-01
 352  7.25122820   0.770  -0.55061   3.69807   6.87254   1.66208   0.00000   3.750E-02   0.000E+00   9.625E-01
 353  7.25253649   0.770  -0.55023   3.69828   6.87321   1.66433   0.00000   3.798E-02   0.000E+00   9.620E-01
 354  7.25384086   0.770  -0.54985   3.69849   6.87389   1.66659   0.00000   3.845E-02   0.000E+00   9.615E-01
 355  7.25514133   0.770  -0.54948   3.69870   6.87457   1.66885   0.00000   3.893E-02   0.000E+00   9.611E-01
 356  7.25643791   0.770  -0.54910   3.69891   6.87524   1.67110   0.00000   3.940E-02   0.000E+00   9.606E-01
 357  7.25773063   0.770  -0.54872   3.69911   6.87592   1.67336   0.00000   3.987E-02   0.000E+00   9.601E-01
 358  7.25901952   0.770  -0.54834   3.69932   6.87659   1.67561   0.00000   4.035E-02   0.000E+00   9.597E-01
 359  7.26030459   0.770  -0.54796   3.69953   6.87727   1.67787   0.00000   4.082E-02   0.000E+00   9.592E-01
 360  7.26158587   0.770  -0.54755   3.69975   6.87794   1.68009   0.00000   4.136E-02   0.000E+00   9.586E-01
 361  7.26286338   0.770  -0.54713   3.69996   6.87861   1.68228   0.00000   4.193E-02   0.000E+00   9.581E-01
 362  7.26413714   0.770  -0.54671   3.70018   6.87928   1.68448   0.00000   4.250E-02   0.000E+00   9.575E-01
 363  7.26540718   0.770  -0.54629   3.70040   6.87995   1.68668   0.00000   4.307E-02   0.000E+00   9.569E-01
 364  7.26667352   0.770  -0.54586   3.70062   6.88062   1.68888   0.00000   4.364E-02   0.000E+00   9.564E-01
 365  7.26793617   0.770  -0.54544   3.70083   6.88129   1.69108   0.00000   4.421E-02   0.000E+00   9.558E-01
 366  7.26919517   0.770  -0.54502   3.70105   6.88196   1.69328   0.00000   4.478E-02   0.000E+00   9.552E-01
 367  7.27045052   0.770  -0.54460   3.70127   6.88263   1.69548   0.00000   4.535E-02   0.000E+00   9.547E-01
 368  7.27170226   0.770  -0.54417   3.70149   6.88331   1.69768   0.00000   4.592E-02   0.000E+00   9.541E-01
 369  7.27295040   0.770  -0.54375   3.70170   6.88398   1.69988   0.00000   4.649E-02   0.000E+00   9.535E-01
 370  7.27419496   0.770  -0.54333   3.70192   6.88465   1.70207   0.00000   4.706E-02   0.000E+00   9.529E-01
 371  7.27543597   0.770  -0.54287   3.70214   6.88531   1.70422   0.00000   4.762E-02   0.000E+00   9.524E-01
 372  7.27667344   0.770  -0.54242   3.70237   6.88598   1.70636   0.00000   4.819E-02   0.000E+00   9.518E-01
 373  7.27790739   0.770  -0.54197   3.70259   6.88664   1.70851   0.00000   4.876E-02   0.000E+00   9.512E-01
 374  7.27913785   0.770  -0.54152   3.70281   6.88731   1.71065   0.00000   4.932E-02   0.000E+00   9.507E-01
 375  7.28036483   0.770  -0.54107   3.70303   6.88798   1.71280   0.00000   4.989E-02   0.000E+00   9.501E-01
 376  7.28158835   0.770  -0.54061   3.70325   6.88864   1.71495   0.00000   5.046E-02   0.000E+00   9.495E-01
 377  7.28280844   0.770  -0.54016   3.70348   6.88931   1.71709   0.00000   5.103E-02   0.000E+00   9.490E-01
 378  7.28402511   0.770  -0.53971   3.70370   6.88998   1.71924   0.00000   5.159E-02   0.000E+00   9.484E-01
 379  7.28523838   0.770  -0.53926   3.70392   6.89064   1.72138   0.00000   5.216E-02   0.000E+00   9.478E-01
 380  7.28644827   0.770  -0.53881   3.70414   6.89131   1.72353   0.00000   5.273E-02   0.000E+00   9.473E-01
 381  7.28765480   0.770  -0.53835   3.70437   6.89197   1.72565   0.00000   5.335E-02   0.000E+00   9.467E-01
 382  7.28885799   0.770  -0.53789   3.70459   6.89264   1.72774   0.00000   5.401E-02   0.000E+00   9.460E-01
 383  7.29005785   0.770  -0.53744   3.70481   6.89330   1.72983   0.00000   5.468E-02   0.000E+00   9.453E-01
 384  7.29125441   0.770  -0.53698   3.70503   6.89396   1.73192   0.00000   5.534E-02   0.000E+00   9.447E-01
 385  7.29244767   0.770  -0.53652   3.70526   6.89462   1.73401   0.00000   5.601E-02   0.000E+00   9.440E-01
 386  7.29363767   0.770  -0.53607   3.70548   6.89528   1.73610   0.00000   5.667E-02   0.000E+00   9.433E-01
 387  7.29482442   0.770  -0.53561   3.70570   6.89594   1.73820   0.00000   5.734E-02   0.000E+00   9.427E-01
 388  7.29600793   0.770  -0.53515   3.70592   6.89661   1.74029   0.00000   5.800E-02   0.000E+00   9.420E-01
 389  7.29718823   0.770  -0.53469   3.70615   6.89727   1.74238   0.00000   5.867E-02   0.000E+00   9.413E-01
 390  7.29836533   0.770  -0.53424   3.70637   6.89793   1.74447   0.00000   5.933E-02   0.000E+00   9.407E-01
 391  7.29953925   0.770  -0.53378   3.70659   6.89859   1.74656   0.00000   6.000E-02   0.000E+00   9.400E-01
 392  7.30869486   0.770  -0.53019   3.70834   6.90378   1.76260   0.00000   6.521E-02   0.000E+00   9.348E-01
 393  7.31766143   0.770  -0.52650   3.71005   6.90881   1.77806   0.00000   7.155E-02   0.000E+00   9.284E-01
 394  7.32644661   0.770  -0.52284   3.71173   6.91375   1.79293   0.00000   7.730E-02   0.000E+00   9.227E-01
 395  7.33505760   0.770  -0.51936   3.71338   6.91867   1.80749   0.00000   8.359E-02   0.000E+00   9.156E-01
 396  7.34350117   0.770  -0.51600   3.71501   6.92356   1.82176   0.00000   9.117E-02   0.000E+00   9.088E-01
 397  7.35178370   0.770  -0.51282   3.71661   6.92842   1.83571   0.00000   9.875E-02   0.000E+00   9.012E-01
 398  7.35991123   0.770  -0.50989   3.71817   6.93325   1.84933   0.00000   1.072E-01   0.000E+00   8.928E-01
 399  7.36788945   0.770  -0.50712   3.71970   6.93805   1.86264   0.00000   1.159E-01   0.000E+00   8.841E-01
 400  7.37572374   0.770  -0.50453   3.72120   6.94281   1.87557   0.00000   1.250E-01   0.000E+00   8.750E-01
 401  7.38341921   0.770  -0.50214   3.72266   6.94754   1.88819   0.00000   1.352E-01   0.000E+00   8.648E-01
 402  7.39098069   0.770  -0.49997   3.72411   6.95224   1.90045   0.00000   1.456E-01   0.000E+00   8.544E-01
 403  7.39841277   0.770  -0.49804   3.72550   6.95691   1.91229   0.00000   1.573E-01   0.000E+00   8.427E-01
 404  7.40571980   0.770  -0.49637   3.72686   6.96154   1.92373   0.00000   1.689E-01   0.000E+00   8.311E-01
 405  7.41290592   0.770  -0.49501   3.72817   6.96613   1.93472   0.00000   1.823E-01   0.000E+00   8.177E-01
 406  7.41997506   0.770  -0.49397   3.72943   6.97069   1.94527   0.00000   1.959E-01   0.000E+00   8.041E-01
 407  7.42693099   0.770  -0.49315   3.73064   6.97522   1.95546   0.00000   2.101E-01   0.000E+00   7.899E-01
 408  7.43377725   0.770  -0.49261   3.73179   6.97969   1.96517   0.00000   2.256E-01   0.000E+00   7.744E-01
 409  7.44051726   0.770  -0.49241   3.73287   6.98412   1.97420   0.00000   2.421E-01   0.000E+00   7.579E-01
 410  7.44715427   0.770  -0.49238   3.73390   6.98852   1.98287   0.00000   2.592E-01   0.000E+00   7.408E-01
 411  7.45369137   0.770  -0.49275   3.73485   6.99290   1.99075   0.00000   2.777E-01   0.000E+00   7.223E-01
 412  7.46013153   0.770  -0.49336   3.73575   6.99730   1.99803   0.00000   2.975E-01   0.000E+00   7.025E-01
 413  7.46647759   0.770  -0.49423   3.73658   7.00170   2.00471   0.00000   3.186E-01   0.000E+00   6.814E-01
 414  7.47273225   0.770  -0.49550   3.73733   7.00617   2.01030   0.00021   3.414E-01   0.000E+00   6.586E-01
 415  7.47889810   0.770  -0.49691   3.73805   7.01066   2.01551   0.00048   3.649E-01   0.000E+00   6.351E-01
 416  7.48497765   0.770  -0.49865   3.73868   7.01494   2.01984   0.00285   3.907E-01   0.000E+00   6.093E-01
 417  7.49097326   0.769  -0.50061   3.73925   7.01903   2.02374   0.00650   4.184E-01   0.000E+00   5.816E-01
 418  7.49688722   0.769  -0.50287   3.73975   7.02285   2.02710   0.01193   4.485E-01   0.000E+00   5.515E-01
 419  7.50272173   0.769  -0.50554   3.74016   7.02664   2.02918   0.02045   4.973E-01   0.000E+00   5.027E-01
 420  7.50847890   0.769  -0.50868   3.74046   7.03030   2.02925   0.03220   5.685E-01   0.000E+00   4.315E-01
 421  7.51416074   0.770  -0.51253   3.74060   7.03356   2.02838   0.04453   6.337E-01   0.000E+00   3.663E-01
 422  7.51976921   0.770  -0.51706   3.74061   7.03637   2.02690   0.05302   6.918E-01   0.000E+00   3.082E-01
 423  7.52530617   0.770  -0.52221   3.74048   7.03868   2.02498   0.06256   7.410E-01   0.000E+00   2.590E-01
 424  7.53077343   0.770  -0.52793   3.74023   7.04063   2.02278   0.07019   7.832E-01   0.000E+00   2.168E-01
 425  7.53617272   0.770  -0.53414   3.73988   7.04227   2.02037   0.07579   8.239E-01   0.000E+00   1.761E-01
 426  7.54150570   0.770  -0.54080   3.73942   7.04362   2.01787   0.08157   8.574E-01   0.000E+00   1.426E-01
 427  7.54677400   0.770  -0.54785   3.73888   7.04473   2.01527   0.08613   8.878E-01   0.000E+00   1.122E-01
 428  7.55197914   0.769  -0.55524   3.73826   7.04562   2.01263   0.08987   9.175E-01   0.000E+00   8.201E-02
 429  7.55712264   0.769  -0.56291   3.73754   7.04631   2.00998   0.09264   9.443E-01   0.000E+00   5.604E-02
 430  7.56220594   0.769  -0.57081   3.73676   7.04685   2.00737   0.09264   9.672E-01   0.000E+00   3.305E-02
 431  7.56723043   0.769  -0.57874   3.73595   7.04723   2.00480   0.09540   9.859E-01   0.000E+00   1.371E-02
 432  7.57219745   0.769  -0.58684   3.73507   7.04748   2.00231   0.09540   1.007E+00   0.000E+00  -7.261E-03
 433  7.57710830   0.769  -0.59495   3.73414   7.04763   1.99989   0.09540   1.025E+00   0.000E+00  -2.566E-02
 434  7.58196425   0.769  -0.60293   3.73318   7.04767   1.99755   0.09540   1.041E+00   0.000E+00  -4.158E-02
 435  7.58676650   0.769  -0.61090   3.73217   7.04763   1.99530   0.09540   1.055E+00   0.000E+00  -5.561E-02
 436  7.59151622   0.769  -0.61854   3.73118   7.04751   1.99320   0.09540   1.068E+00   0.000E+00  -6.751E-02
 437  7.59621457   0.769  -0.62596   3.73017   7.04734   1.99122   0.09354   1.078E+00   0.000E+00  -7.776E-02
 438  7.60086263   0.769  -0.63296   3.72918   7.04711   1.98937   0.09264   1.085E+00   0.000E+00  -8.570E-02
 439  7.60546147   0.769  -0.63952   3.72823   7.04685   1.98768   0.09264   1.092E+00   0.000E+00  -9.206E-02
 440  7.61001212   0.769  -0.64568   3.72731   7.04656   1.98612   0.08987   1.097E+00   0.000E+00  -9.685E-02
 441  7.61451558   0.769  -0.65128   3.72644   7.04623   1.98471   0.08987   1.100E+00   0.000E+00  -9.982E-02
 442  7.61897282   0.769  -0.65613   3.72569   7.04590   1.98344   0.08711   1.101E+00   0.000E+00  -1.010E-01
 443  7.62338478   0.769  -0.66049   3.72499   7.04555   1.98230   0.08711   1.101E+00   0.000E+00  -1.010E-01
 444  7.62775237   0.769  -0.66437   3.72435   7.04520   1.98130   0.08434   1.100E+00   0.000E+00  -1.005E-01
 445  7.63207647   0.769  -0.66773   3.72378   7.04486   1.98042   0.08434   1.099E+00   0.000E+00  -9.874E-02
 446  7.63635795   0.769  -0.67059   3.72327   7.04451   1.97965   0.08174   1.096E+00   0.000E+00  -9.630E-02
 447  7.64059762   0.769  -0.67290   3.72285   7.04418   1.97899   0.08157   1.093E+00   0.000E+00  -9.281E-02
 448  7.64479631   0.769  -0.67465   3.72251   7.04386   1.97844   0.08051   1.088E+00   0.000E+00  -8.877E-02
 449  7.64895480   0.769  -0.67596   3.72223   7.04356   1.97796   0.07881   1.084E+00   0.000E+00  -8.423E-02
 450  7.65307384   0.769  -0.67696   3.72200   7.04327   1.97757   0.07880   1.079E+00   0.000E+00  -7.936E-02
 451  7.65715418   0.769  -0.67741   3.72186   7.04301   1.97729   0.07740   1.074E+00   0.000E+00  -7.450E-02
 452  7.66119654   0.769  -0.67785   3.72172   7.04275   1.97702   0.07601   1.070E+00   0.000E+00  -6.964E-02
 453  7.66520163   0.769  -0.67771   3.72167   7.04255   1.97687   0.07508   1.065E+00   0.000E+00  -6.484E-02
 454  7.66917012   0.769  -0.67758   3.72162   7.04234   1.97672   0.07414   1.060E+00   0.000E+00  -6.005E-02
 455  7.67310267   0.769  -0.67741   3.72157   7.04214   1.97658   0.07328   1.055E+00   0.000E+00  -5.531E-02
 456  7.67699993   0.769  -0.67683   3.72160   7.04200   1.97654   0.07328   1.051E+00   0.000E+00  -5.128E-02
 457  7.68086253   0.769  -0.67626   3.72164   7.04185   1.97650   0.07328   1.047E+00   0.000E+00  -4.725E-02
 458  7.68469107   0.769  -0.67569   3.72167   7.04171   1.97646   0.07328   1.043E+00   0.000E+00  -4.322E-02
 459  7.68848617   0.769  -0.67511   3.72170   7.04156   1.97642   0.07328   1.039E+00   0.000E+00  -3.919E-02
 460  7.69224838   0.769  -0.67446   3.72175   7.04145   1.97640   0.07278   1.036E+00   0.000E+00  -3.591E-02
 461  7.69597828   0.769  -0.67376   3.72181   7.04135   1.97639   0.07199   1.033E+00   0.000E+00  -3.308E-02
 462  7.69967643   0.769  -0.67305   3.72188   7.04125   1.97638   0.07119   1.030E+00   0.000E+00  -3.024E-02
 463  7.70334334   0.769  -0.67235   3.72194   7.04115   1.97637   0.07051   1.028E+00   0.000E+00  -2.745E-02
 464  7.70697956   0.769  -0.67163   3.72201   7.04107   1.97638   0.07051   1.025E+00   0.000E+00  -2.492E-02
 465  7.71058558   0.769  -0.67091   3.72209   7.04099   1.97639   0.07051   1.023E+00   0.000E+00  -2.238E-02
 466  7.71416191   0.769  -0.67021   3.72216   7.04092   1.97640   0.07051   1.020E+00   0.000E+00  -2.007E-02
 467  7.71770903   0.769  -0.66955   3.72223   7.04087   1.97641   0.07051   1.018E+00   0.000E+00  -1.828E-02
 468  7.72122741   0.769  -0.66889   3.72230   7.04082   1.97642   0.07051   1.016E+00   0.000E+00  -1.650E-02
 469  7.72471751   0.769  -0.66828   3.72237   7.04077   1.97643   0.07051   1.015E+00   0.000E+00  -1.501E-02
 470  7.72817980   0.769  -0.66771   3.72243   7.04074   1.97643   0.07051   1.014E+00   0.000E+00  -1.381E-02
 471  7.73161469   0.769  -0.66713   3.72250   7.04070   1.97643   0.07051   1.013E+00   0.000E+00  -1.262E-02
 472  7.73502264   0.769  -0.66663   3.72255   7.04067   1.97642   0.07051   1.012E+00   0.000E+00  -1.166E-02
 473  7.73840405   0.769  -0.66618   3.72261   7.04064   1.97640   0.07051   1.011E+00   0.000E+00  -1.097E-02
 474  7.74175933   0.769  -0.66574   3.72266   7.04061   1.97639   0.07051   1.011E+00   0.000E+00  -1.028E-02
 475  7.74508890   0.769  -0.66530   3.72271   7.04058   1.97637   0.07051   1.010E+00   0.000E+00  -9.588E-03
 476  7.74839313   0.769  -0.66501   3.72274   7.04056   1.97633   0.07051   1.010E+00   0.000E+00  -9.307E-03
 477  7.75167241   0.769  -0.66471   3.72278   7.04054   1.97629   0.07051   1.009E+00   0.000E+00  -9.037E-03
 478  7.75492711   0.769  -0.66442   3.72281   7.04052   1.97625   0.07051   1.009E+00   0.000E+00  -8.768E-03
 479  7.75815760   0.769  -0.66413   3.72284   7.04050   1.97621   0.07051   1.008E+00   0.000E+00  -8.498E-03
 480  7.76136424   0.769  -0.66391   3.72287   7.04048   1.97616   0.07033   1.008E+00   0.000E+00  -8.347E-03
 481  7.76454738   0.769  -0.66377   3.72288   7.04046   1.97610   0.06992   1.008E+00   0.000E+00  -8.339E-03
 482  7.76770736   0.769  -0.66364   3.72289   7.04044   1.97604   0.06951   1.008E+00   0.000E+00  -8.332E-03
 483  7.77084451   0.769  -0.66350   3.72290   7.04042   1.97598   0.06911   1.008E+00   0.000E+00  -8.325E-03
 484  7.77395916   0.769  -0.66337   3.72291   7.04040   1.97591   0.06870   1.008E+00   0.000E+00  -8.317E-03
 485  7.77705164   0.769  -0.66323   3.72292   7.04038   1.97585   0.06829   1.008E+00   0.000E+00  -8.310E-03
 486  7.78012224   0.769  -0.66309   3.72294   7.04036   1.97579   0.06788   1.008E+00   0.000E+00  -8.302E-03
 487  7.78317129   0.769  -0.66301   3.72294   7.04034   1.97575   0.06775   1.008E+00   0.000E+00  -8.139E-03
 488  7.78619909   0.769  -0.66296   3.72294   7.04032   1.97572   0.06775   1.008E+00   0.000E+00  -7.899E-03
 489  7.78920592   0.769  -0.66291   3.72295   7.04030   1.97568   0.06775   1.007E+00   0.000E+00  -7.660E-03
 490  7.79219207   0.769  -0.66285   3.72295   7.04029   1.97565   0.06775   1.007E+00   0.000E+00  -7.420E-03
 491  7.79515784   0.769  -0.66280   3.72295   7.04027   1.97562   0.06775   1.007E+00   0.000E+00  -7.180E-03
 492  7.79810348   0.769  -0.66274   3.72295   7.04025   1.97559   0.06775   1.007E+00   0.000E+00  -6.940E-03
 493  7.80102929   0.769  -0.66269   3.72295   7.04023   1.97555   0.06775   1.007E+00   0.000E+00  -6.700E-03
 494  7.80393551   0.769  -0.66264   3.72296   7.04021   1.97552   0.06775   1.006E+00   0.000E+00  -6.460E-03
 495  7.80682242   0.769  -0.66258   3.72296   7.04020   1.97549   0.06775   1.006E+00   0.000E+00  -6.220E-03
 496  7.80969026   0.769  -0.66253   3.72296   7.04018   1.97546   0.06775   1.006E+00   0.000E+00  -5.981E-03
 497  7.81253928   0.769  -0.66249   3.72296   7.04016   1.97542   0.06766   1.006E+00   0.000E+00  -5.896E-03
 498  7.81536974   0.769  -0.66248   3.72295   7.04014   1.97537   0.06748   1.006E+00   0.000E+00  -5.970E-03
 499  7.81818188   0.769  -0.66247   3.72295   7.04012   1.97532   0.06730   1.006E+00   0.000E+00  -6.043E-03
 500  7.82097592   0.769  -0.66246   3.72294   7.04010   1.97527   0.06712   1.006E+00   0.000E+00  -6.117E-03
 501  7.82375210   0.769  -0.66245   3.72294   7.04008   1.97522   0.06693   1.006E+00   0.000E+00  -6.190E-03
 502  7.82651064   0.769  -0.66244   3.72293   7.04005   1.97517   0.06675   1.006E+00   0.000E+00  -6.263E-03
 503  7.82925178   0.769  -0.66242   3.72293   7.04003   1.97512   0.06657   1.006E+00   0.000E+00  -6.337E-03
 504  7.83197572   0.769  -0.66241   3.72292   7.04001   1.97508   0.06639   1.006E+00   0.000E+00  -6.410E-03
 505  7.83468268   0.769  -0.66240   3.72292   7.03999   1.97503   0.06621   1.007E+00   0.000E+00  -6.484E-03
 506  7.83737288   0.769  -0.66239   3.72291   7.03997   1.97498   0.06603   1.007E+00   0.000E+00  -6.557E-03
 507  7.84004651   0.769  -0.66238   3.72290   7.03995   1.97493   0.06584   1.007E+00   0.000E+00  -6.630E-03
 508  7.84270378   0.769  -0.66236   3.72290   7.03993   1.97488   0.06566   1.007E+00   0.000E+00  -6.704E-03
 509  7.84534490   0.769  -0.66235   3.72289   7.03991   1.97483   0.06548   1.007E+00   0.000E+00  -6.777E-03
 510  7.84797005   0.769  -0.66234   3.72289   7.03989   1.97479   0.06530   1.007E+00   0.000E+00  -6.851E-03
 511  7.85057943   0.769  -0.66233   3.72288   7.03987   1.97474   0.06512   1.007E+00   0.000E+00  -6.924E-03
 512  7.85317322   0.769  -0.66232   3.72288   7.03985   1.97469   0.06495   1.007E+00   0.000E+00  -6.966E-03
 513  7.85575161   0.769  -0.66230   3.72288   7.03983   1.97467   0.06483   1.007E+00   0.000E+00  -6.909E-03
 514  7.85831479   0.769  -0.66228   3.72287   7.03981   1.97464   0.06471   1.007E+00   0.000E+00  -6.852E-03
 515  7.86086293   0.769  -0.66227   3.72287   7.03979   1.97461   0.06459   1.007E+00   0.000E+00  -6.795E-03
 516  7.86339620   0.769  -0.66225   3.72287   7.03977   1.97458   0.06447   1.007E+00   0.000E+00  -6.737E-03
 517  7.86591478   0.769  -0.66224   3.72286   7.03975   1.97455   0.06435   1.007E+00   0.000E+00  -6.680E-03
 518  7.86841884   0.769  -0.66222   3.72286   7.03973   1.97453   0.06423   1.007E+00   0.000E+00  -6.623E-03
 519  7.87090855   0.769  -0.66221   3.72285   7.03971   1.97450   0.06411   1.007E+00   0.000E+00  -6.566E-03
 520  7.87338406   0.769  -0.66219   3.72285   7.03969   1.97447   0.06399   1.007E+00   0.000E+00  -6.509E-03
 521  7.87584555   0.769  -0.66217   3.72285   7.03967   1.97444   0.06387   1.007E+00   0.000E+00  -6.451E-03
 522  7.87829316   0.769  -0.66216   3.72284   7.03965   1.97441   0.06375   1.007E+00   0.000E+00  -6.394E-03
 523  7.88072705   0.769  -0.66214   3.72284   7.03963   1.97439   0.06362   1.007E+00   0.000E+00  -6.337E-03
 524  7.88314738   0.769  -0.66213   3.72284   7.03961   1.97436   0.06350   1.006E+00   0.000E+00  -6.280E-03
 525  7.88555429   0.769  -0.66211   3.72283   7.03960   1.97433   0.06338   1.006E+00   0.000E+00  -6.222E-03
 526  7.88794794   0.769  -0.66210   3.72283   7.03958   1.97430   0.06326   1.006E+00   0.000E+00  -6.165E-03
 527  7.89032847   0.768  -0.66208   3.72283   7.03956   1.97427   0.06314   1.006E+00   0.000E+00  -6.108E-03
 528  7.89269603   0.768  -0.66206   3.72282   7.03954   1.97425   0.06302   1.006E+00   0.000E+00  -6.051E-03
 529  7.89505074   0.768  -0.66205   3.72282   7.03952   1.97422   0.06290   1.006E+00   0.000E+00  -5.993E-03
 530  7.89739276   0.768  -0.66203   3.72282   7.03950   1.97419   0.06278   1.006E+00   0.000E+00  -5.936E-03
 531  7.89972221   0.768  -0.66202   3.72281   7.03948   1.97416   0.06266   1.006E+00   0.000E+00  -5.879E-03
 532  7.90203924   0.768  -0.66200   3.72281   7.03946   1.97413   0.06254   1.006E+00   0.000E+00  -5.822E-03
 533  7.90434397   0.768  -0.66199   3.72281   7.03944   1.97411   0.06242   1.006E+00   0.000E+00  -5.765E-03
 534  7.90663653   0.768  -0.66197   3.72280   7.03942   1.97408   0.06230   1.006E+00   0.000E+00  -5.707E-03
 535  7.90891706   0.768  -0.66195   3.72280   7.03940   1.97405   0.06216   1.006E+00   0.000E+00  -5.671E-03
 536  7.91118567   0.768  -0.66194   3.72280   7.03938   1.97402   0.06200   1.006E+00   0.000E+00  -5.673E-03
 537  7.91344250   0.768  -0.66193   3.72279   7.03936   1.97399   0.06184   1.006E+00   0.000E+00  -5.675E-03
 538  7.91568765   0.768  -0.66191   3.72279   7.03934   1.97396   0.06168   1.006E+00   0.000E+00  -5.677E-03
 539  7.91792126   0.768  -0.66190   3.72278   7.03933   1.97393   0.06152   1.006E+00   0.000E+00  -5.679E-03
 540  7.92014344   0.768  -0.66188   3.72278   7.03931   1.97391   0.06136   1.006E+00   0.000E+00  -5.681E-03
 541  7.92235431   0.768  -0.66187   3.72278   7.03929   1.97388   0.06120   1.006E+00   0.000E+00  -5.683E-03
 542  7.92455398   0.768  -0.66185   3.72277   7.03927   1.97385   0.06104   1.006E+00   0.000E+00  -5.685E-03
 543  7.92674257   0.768  -0.66184   3.72277   7.03925   1.97382   0.06088   1.006E+00   0.000E+00  -5.687E-03
 544  7.92892018   0.768  -0.66182   3.72277   7.03923   1.97379   0.06071   1.006E+00   0.000E+00  -5.689E-03
 545  7.93108693   0.768  -0.66181   3.72276   7.03921   1.97376   0.06055   1.006E+00   0.000E+00  -5.691E-03
 546  7.93324292   0.768  -0.66179   3.72276   7.03919   1.97373   0.06039   1.006E+00   0.000E+00  -5.693E-03
 547  7.93538826   0.768  -0.66178   3.72276   7.03917   1.97370   0.06023   1.006E+00   0.000E+00  -5.695E-03
 548  7.93752305   0.768  -0.66177   3.72275   7.03915   1.97368   0.06007   1.006E+00   0.000E+00  -5.697E-03
 549  7.93964741   0.768  -0.66175   3.72275   7.03913   1.97365   0.05991   1.006E+00   0.000E+00  -5.699E-03
 550  7.94176142   0.768  -0.66174   3.72275   7.03911   1.97362   0.05975   1.006E+00   0.000E+00  -5.701E-03
 551  7.94386519   0.768  -0.66172   3.72274   7.03909   1.97359   0.05959   1.006E+00   0.000E+00  -5.703E-03
 552  7.94595882   0.768  -0.66171   3.72274   7.03907   1.97356   0.05943   1.006E+00   0.000E+00  -5.705E-03
 553  7.94804240   0.768  -0.66169   3.72274   7.03905   1.97353   0.05926   1.006E+00   0.000E+00  -5.707E-03
 554  7.95011604   0.768  -0.66168   3.72273   7.03903   1.97350   0.05910   1.006E+00   0.000E+00  -5.709E-03
 555  7.95217982   0.768  -0.66166   3.72273   7.03901   1.97347   0.05894   1.006E+00   0.000E+00  -5.711E-03
 556  7.95423385   0.768  -0.66165   3.72273   7.03899   1.97344   0.05878   1.006E+00   0.000E+00  -5.714E-03
 557  7.95627820   0.768  -0.66163   3.72272   7.03897   1.97342   0.05862   1.006E+00   0.000E+00  -5.716E-03
 558  7.95831297   0.768  -0.66162   3.72272   7.03895   1.97339   0.05846   1.006E+00   0.000E+00  -5.718E-03
 559  7.96033826   0.768  -0.66161   3.72271   7.03893   1.97336   0.05830   1.006E+00   0.000E+00  -5.720E-03
 560  7.96235414   0.768  -0.66159   3.72271   7.03892   1.97333   0.05814   1.006E+00   0.000E+00  -5.722E-03
 561  7.96436071   0.768  -0.66158   3.72271   7.03890   1.97330   0.05798   1.006E+00   0.000E+00  -5.724E-03
 562  7.96635806   0.768  -0.66156   3.72270   7.03888   1.97327   0.05782   1.006E+00   0.000E+00  -5.726E-03
 563  7.96834625   0.768  -0.66155   3.72270   7.03886   1.97324   0.05765   1.006E+00   0.000E+00  -5.728E-03
 564  7.97032539   0.768  -0.66153   3.72270   7.03884   1.97321   0.05749   1.006E+00   0.000E+00  -5.730E-03
 565  7.97229555   0.768  -0.66152   3.72269   7.03882   1.97318   0.05733   1.006E+00   0.000E+00  -5.732E-03
 566  7.97425681   0.768  -0.66150   3.72269   7.03880   1.97316   0.05717   1.006E+00   0.000E+00  -5.734E-03
 567  7.97620926   0.768  -0.66149   3.72269   7.03878   1.97313   0.05701   1.006E+00   0.000E+00  -5.736E-03
 568  7.97815297   0.768  -0.66147   3.72268   7.03876   1.97310   0.05685   1.006E+00   0.000E+00  -5.738E-03
 569  7.98008801   0.768  -0.66146   3.72268   7.03874   1.97307   0.05669   1.006E+00   0.000E+00  -5.740E-03
 570  7.98201448   0.768  -0.66144   3.72268   7.03872   1.97305   0.05653   1.006E+00   0.000E+00  -5.724E-03
 571  7.98393243   0.768  -0.66142   3.72267   7.03870   1.97303   0.05638   1.006E+00   0.000E+00  -5.709E-03
 572  7.98584195   0.768  -0.66141   3.72267   7.03868   1.97301   0.05622   1.006E+00   0.000E+00  -5.694E-03
 573  7.98774312   0.768  -0.66139   3.72267   7.03867   1.97299   0.05607   1.006E+00   0.000E+00  -5.678E-03
 574  7.98963599   0.768  -0.66137   3.72267   7.03865   1.97297   0.05592   1.006E+00   0.000E+00  -5.663E-03
 575  7.99152066   0.768  -0.66135   3.72266   7.03863   1.97295   0.05576   1.006E+00   0.000E+00  -5.648E-03
 576  7.99339718   0.768  -0.66134   3.72266   7.03861   1.97293   0.05561   1.006E+00   0.000E+00  -5.632E-03
 577  7.99526562   0.768  -0.66132   3.72266   7.03859   1.97291   0.05545   1.006E+00   0.000E+00  -5.617E-03
 578  7.99712606   0.768  -0.66130   3.72266   7.03858   1.97289   0.05530   1.006E+00   0.000E+00  -5.602E-03
 579  7.99897857   0.768  -0.66128   3.72265   7.03856   1.97288   0.05514   1.006E+00   0.000E+00  -5.586E-03
 580  8.00082321   0.768  -0.66127   3.72265   7.03854   1.97286   0.05499   1.006E+00   0.000E+00  -5.571E-03
 581  8.00266004   0.768  -0.66125   3.72265   7.03852   1.97284   0.05484   1.006E+00   0.000E+00  -5.556E-03
 582  8.00448914   0.768  -0.66123   3.72264   7.03850   1.97282   0.05468   1.006E+00   0.000E+00  -5.540E-03
 583  8.00631057   0.768  -0.66121   3.72264   7.03848   1.97280   0.05453   1.006E+00   0.000E+00  -5.525E-03
 584  8.00812439   0.768  -0.66119   3.72264   7.03847   1.97278   0.05437   1.006E+00   0.000E+00  -5.510E-03
 585  8.00993067   0.768  -0.66118   3.72264   7.03845   1.97276   0.05422   1.006E+00   0.000E+00  -5.494E-03
 586  8.01172946   0.768  -0.66116   3.72263   7.03843   1.97274   0.05406   1.006E+00   0.000E+00  -5.479E-03
 587  8.01352084   0.768  -0.66114   3.72263   7.03841   1.97272   0.05391   1.006E+00   0.000E+00  -5.464E-03
 588  8.01530486   0.768  -0.66112   3.72263   7.03839   1.97270   0.05375   1.006E+00   0.000E+00  -5.448E-03
 589  8.01708158   0.768  -0.66111   3.72263   7.03837   1.97268   0.05360   1.006E+00   0.000E+00  -5.433E-03
 590  8.01885106   0.768  -0.66109   3.72262   7.03836   1.97266   0.05345   1.006E+00   0.000E+00  -5.418E-03
 591  8.02061336   0.768  -0.66107   3.72262   7.03834   1.97264   0.05329   1.006E+00   0.000E+00  -5.402E-03
 592  8.02236853   0.768  -0.66105   3.72262   7.03832   1.97262   0.05314   1.006E+00   0.000E+00  -5.387E-03
 593  8.02411665   0.768  -0.66104   3.72261   7.03830   1.97260   0.05298   1.006E+00   0.000E+00  -5.372E-03
 594  8.02585775   0.768  -0.66102   3.72261   7.03828   1.97258   0.05283   1.006E+00   0.000E+00  -5.356E-03
 595  8.02759190   0.768  -0.66100   3.72261   7.03827   1.97256   0.05267   1.005E+00   0.000E+00  -5.341E-03
 596  8.02931916   0.768  -0.66098   3.72261   7.03825   1.97255   0.05252   1.005E+00   0.000E+00  -5.326E-03
 597  8.03103957   0.768  -0.66096   3.72260   7.03823   1.97253   0.05237   1.005E+00   0.000E+00  -5.310E-03
 598  8.03275320   0.768  -0.66095   3.72260   7.03821   1.97251   0.05221   1.005E+00   0.000E+00  -5.295E-03
 599  8.03446008   0.768  -0.66093   3.72260   7.03819   1.97249   0.05206   1.005E+00   0.000E+00  -5.280E-03
 600  8.03616029   0.768  -0.66091   3.72260   7.03817   1.97247   0.05190   1.005E+00   0.000E+00  -5.264E-03
 601  8.03785387   0.768  -0.66089   3.72259   7.03816   1.97245   0.05175   1.005E+00   0.000E+00  -5.249E-03
 602  8.03954087   0.768  -0.66088   3.72259   7.03814   1.97243   0.05159   1.005E+00   0.000E+00  -5.234E-03
 603  8.04122134   0.768  -0.66086   3.72259   7.03812   1.97241   0.05144   1.005E+00   0.000E+00  -5.218E-03
 604  8.04289533   0.768  -0.66084   3.72258   7.03810   1.97239   0.05128   1.005E+00   0.000E+00  -5.203E-03
 605  8.04456290   0.768  -0.66082   3.72258   7.03808   1.97237   0.05113   1.005E+00   0.000E+00  -5.188E-03
 606  8.04622408   0.768  -0.66081   3.72258   7.03806   1.97235   0.05098   1.005E+00   0.000E+00  -5.172E-03
 607  8.04787894   0.768  -0.66079   3.72258   7.03805   1.97233   0.05082   1.005E+00   0.000E+00  -5.157E-03
 608  8.04952751   0.768  -0.66077   3.72257   7.03803   1.97231   0.05067   1.005E+00   0.000E+00  -5.142E-03
 609  8.05116986   0.768  -0.66075   3.72257   7.03801   1.97229   0.05051   1.005E+00   0.000E+00  -5.126E-03
 610  8.05280601   0.768  -0.66074   3.72257   7.03799   1.97227   0.05036   1.005E+00   0.000E+00  -5.111E-03
 611  8.05443602   0.768  -0.66072   3.72257   7.03797   1.97225   0.05020   1.005E+00   0.000E+00  -5.096E-03
 612  8.05605994   0.768  -0.66070   3.72256   7.03795   1.97223   0.05005   1.005E+00   0.000E+00  -5.080E-03
 613  8.05767781   0.768  -0.66068   3.72256   7.03794   1.97222   0.04990   1.005E+00   0.000E+00  -5.065E-03
 614  8.05928967   0.768  -0.66066   3.72256   7.03792   1.97220   0.04974   1.005E+00   0.000E+00  -5.049E-03
 615  8.06089557   0.768  -0.66065   3.72255   7.03790   1.97218   0.04959   1.005E+00   0.000E+00  -5.034E-03
 616  8.06249556   0.768  -0.66063   3.72255   7.03788   1.97216   0.04943   1.005E+00   0.000E+00  -5.019E-03
 617  8.06408968   0.768  -0.66061   3.72255   7.03786   1.97214   0.04928   1.005E+00   0.000E+00  -5.003E-03
 618  8.06567796   0.768  -0.66059   3.72255   7.03785   1.97212   0.04912   1.005E+00   0.000E+00  -4.988E-03
 619  8.06726046   0.768  -0.66058   3.72254   7.03783   1.97210   0.04897   1.005E+00   0.000E+00  -4.973E-03
 620  8.06883721   0.768  -0.66056   3.72254   7.03781   1.97208   0.04881   1.005E+00   0.000E+00  -4.957E-03
 621  8.07040826   0.768  -0.66054   3.72254   7.03779   1.97206   0.04869   1.005E+00   0.000E+00  -4.947E-03
 622  8.07197364   0.767  -0.66053   3.72254   7.03777   1.97205   0.04858   1.005E+00   0.000E+00  -4.940E-03
 623  8.07353340   0.767  -0.66051   3.72253   7.03776   1.97203   0.04848   1.005E+00   0.000E+00  -4.933E-03
 624  8.07508758   0.767  -0.66049   3.72253   7.03774   1.97201   0.04838   1.005E+00   0.000E+00  -4.926E-03
 625  8.07663622   0.767  -0.66048   3.72253   7.03773   1.97200   0.04828   1.005E+00   0.000E+00  -4.920E-03
 626  8.07817936   0.767  -0.66046   3.72253   7.03771   1.97198   0.04817   1.005E+00   0.000E+00  -4.913E-03
 627  8.07971703   0.767  -0.66045   3.72252   7.03769   1.97196   0.04807   1.005E+00   0.000E+00  -4.906E-03
 628  8.08124928   0.767  -0.66043   3.72252   7.03768   1.97195   0.04797   1.005E+00   0.000E+00  -4.899E-03
 629  8.08277614   0.767  -0.66041   3.72252   7.03766   1.97193   0.04786   1.005E+00   0.000E+00  -4.893E-03
 630  8.08429765   0.767  -0.66040   3.72252   7.03764   1.97191   0.04776   1.005E+00   0.000E+00  -4.886E-03
 631  8.08581385   0.767  -0.66038   3.72252   7.03763   1.97190   0.04766   1.005E+00   0.000E+00  -4.879E-03
 632  8.08732477   0.767  -0.66037   3.72251   7.03761   1.97188   0.04756   1.005E+00   0.000E+00  -4.872E-03
 633  8.08883046   0.767  -0.66035   3.72251   7.03759   1.97186   0.04745   1.005E+00   0.000E+00  -4.866E-03
 634  8.09033094   0.767  -0.66033   3.72251   7.03758   1.97185   0.04735   1.005E+00   0.000E+00  -4.859E-03
 635  8.09182626   0.767  -0.66032   3.72251   7.03756   1.97183   0.04725   1.005E+00   0.000E+00  -4.852E-03
 636  8.09331645   0.767  -0.66030   3.72250   7.03754   1.97181   0.04714   1.005E+00   0.000E+00  -4.846E-03
 637  8.09480154   0.767  -0.66028   3.72250   7.03753   1.97180   0.04704   1.005E+00   0.000E+00  -4.839E-03
 638  8.09628157   0.767  -0.66027   3.72250   7.03751   1.97178   0.04694   1.005E+00   0.000E+00  -4.832E-03
 639  8.09775657   0.767  -0.66025   3.72250   7.03749   1.97177   0.04683   1.005E+00   0.000E+00  -4.825E-03
 640  8.09922658   0.767  -0.66024   3.72249   7.03748   1.97175   0.04673   1.005E+00   0.000E+00  -4.819E-03
 641  8.10069163   0.767  -0.66022   3.72249   7.03746   1.97173   0.04663   1.005E+00   0.000E+00  -4.812E-03
 642  8.10215176   0.767  -0.66020   3.72249   7.03744   1.97172   0.04653   1.005E+00   0.000E+00  -4.805E-03
 643  8.10360699   0.767  -0.66019   3.72249   7.03743   1.97170   0.04642   1.005E+00   0.000E+00  -4.798E-03
 644  8.10505737   0.767  -0.66017   3.72249   7.03741   1.97168   0.04632   1.005E+00   0.000E+00  -4.792E-03
 645  8.10650291   0.767  -0.66016   3.72248   7.03739   1.97167   0.04622   1.005E+00   0.000E+00  -4.785E-03
 646  8.10794366   0.767  -0.66014   3.72248   7.03738   1.97165   0.04611   1.005E+00   0.000E+00  -4.778E-03
 647  8.10937965   0.767  -0.66012   3.72248   7.03736   1.97163   0.04601   1.005E+00   0.000E+00  -4.772E-03
 648  8.11081091   0.767  -0.66011   3.72248   7.03734   1.97162   0.04591   1.005E+00   0.000E+00  -4.765E-03
 649  8.11223746   0.767  -0.66009   3.72247   7.03733   1.97160   0.04581   1.005E+00   0.000E+00  -4.758E-03
 650  8.11365934   0.767  -0.66008   3.72247   7.03731   1.97158   0.04570   1.005E+00   0.000E+00  -4.751E-03
 651  8.11507658   0.767  -0.66006   3.72247   7.03729   1.97157   0.04560   1.005E+00   0.000E+00  -4.745E-03
 652  8.11648922   0.767  -0.66004   3.72247   7.03728   1.97155   0.04550   1.005E+00   0.000E+00  -4.738E-03
 653  8.11789727   0.767  -0.66003   3.72246   7.03726   1.97154   0.04539   1.005E+00   0.000E+00  -4.731E-03
 654  8.11930077   0.767  -0.66001   3.72246   7.03724   1.97152   0.04529   1.005E+00   0.000E+00  -4.724E-03
 655  8.12069975   0.767  -0.66000   3.72246   7.03723   1.97150   0.04519   1.005E+00   0.000E+00  -4.718E-03
 656  8.12209424   0.767  -0.65998   3.72246   7.03721   1.97149   0.04509   1.005E+00   0.000E+00  -4.711E-03
 657  8.12348427   0.767  -0.65996   3.72245   7.03719   1.97147   0.04498   1.005E+00   0.000E+00  -4.704E-03
 658  8.12486986   0.767  -0.65995   3.72245   7.03718   1.97145   0.04488   1.005E+00   0.000E+00  -4.697E-03
 659  8.12625104   0.767  -0.65993   3.72245   7.03716   1.97144   0.04478   1.005E+00   0.000E+00  -4.691E-03
 660  8.12762785   0.767  -0.65992   3.72245   7.03715   1.97142   0.04467   1.004E+00   0.000E+00  -4.684E-03
 661  8.12900030   0.767  -0.65990   3.72245   7.03713   1.97140   0.04457   1.004E+00   0.000E+00  -4.677E-03
 662  8.13036843   0.767  -0.65988   3.72244   7.03711   1.97139   0.04447   1.004E+00   0.000E+00  -4.671E-03
 663  8.13173227   0.767  -0.65987   3.72244   7.03710   1.97137   0.04436   1.004E+00   0.000E+00  -4.664E-03
 664  8.13309183   0.767  -0.65985   3.72244   7.03708   1.97135   0.04426   1.004E+00   0.000E+00  -4.657E-03
 665  8.13444715   0.767  -0.65984   3.72244   7.03706   1.97134   0.04416   1.004E+00   0.000E+00  -4.650E-03
 666  8.13579826   0.767  -0.65982   3.72243   7.03705   1.97132   0.04406   1.004E+00   0.000E+00  -4.644E-03
 667  8.13714518   0.767  -0.65980   3.72243   7.03703   1.97131   0.04395   1.004E+00   0.000E+00  -4.637E-03
 668  8.13848793   0.767  -0.65979   3.72243   7.03701   1.97129   0.04385   1.004E+00   0.000E+00  -4.630E-03
 669  8.13982654   0.767  -0.65977   3.72243   7.03700   1.97127   0.04375   1.004E+00   0.000E+00  -4.623E-03
 670  8.14116104   0.767  -0.65976   3.72242   7.03698   1.97126   0.04364   1.004E+00   0.000E+00  -4.617E-03
 671  8.14249145   0.767  -0.65974   3.72242   7.03696   1.97124   0.04354   1.004E+00   0.000E+00  -4.610E-03
 672  8.14381780   0.767  -0.65972   3.72242   7.03695   1.97122   0.04344   1.004E+00   0.000E+00  -4.603E-03
 673  8.14514011   0.767  -0.65971   3.72242   7.03693   1.97121   0.04334   1.004E+00   0.000E+00  -4.597E-03
 674  8.14645840   0.767  -0.65969   3.72242   7.03691   1.97119   0.04323   1.004E+00   0.000E+00  -4.590E-03
 675  8.14777271   0.767  -0.65967   3.72241   7.03690   1.97117   0.04313   1.004E+00   0.000E+00  -4.583E-03
 676  8.14908305   0.767  -0.65966   3.72241   7.03688   1.97116   0.04303   1.004E+00   0.000E+00  -4.576E-03
 677  8.15038945   0.767  -0.65964   3.72241   7.03686   1.97114   0.04292   1.004E+00   0.000E+00  -4.570E-03
 678  8.15169193   0.767  -0.65963   3.72241   7.03685   1.97112   0.04282   1.004E+00   0.000E+00  -4.563E-03
 679  8.15299052   0.767  -0.65961   3.72240   7.03683   1.97111   0.04272   1.004E+00   0.000E+00  -4.556E-03
 680  8.15428523   0.767  -0.65959   3.72240   7.03681   1.97109   0.04262   1.004E+00   0.000E+00  -4.549E-03
 681  8.15557610   0.767  -0.65958   3.72240   7.03680   1.97108   0.04251   1.004E+00   0.000E+00  -4.543E-03
 682  8.15686314   0.767  -0.65956   3.72240   7.03678   1.97106   0.04241   1.004E+00   0.000E+00  -4.536E-03
 683  8.15814638   0.767  -0.65955   3.72239   7.03676   1.97104   0.04231   1.004E+00   0.000E+00  -4.529E-03
 684  8.15942584   0.767  -0.65953   3.72239   7.03675   1.97103   0.04220   1.004E+00   0.000E+00  -4.522E-03
 685  8.16070154   0.767  -0.65951   3.72239   7.03673   1.97101   0.04210   1.004E+00   0.000E+00  -4.516E-03
 686  8.16197350   0.767  -0.65950   3.72239   7.03671   1.97099   0.04200   1.004E+00   0.000E+00  -4.509E-03
 687  8.16324175   0.767  -0.65948   3.72239   7.03670   1.97098   0.04189   1.004E+00   0.000E+00  -4.502E-03
 688  8.16450630   0.767  -0.65947   3.72238   7.03668   1.97096   0.04179   1.004E+00   0.000E+00  -4.496E-03
 689  8.16576719   0.767  -0.65945   3.72238   7.03666   1.97094   0.04169   1.004E+00   0.000E+00  -4.489E-03
 690  8.16702442   0.767  -0.65943   3.72238   7.03665   1.97093   0.04159   1.004E+00   0.000E+00  -4.482E-03
 691  8.16827803   0.767  -0.65942   3.72238   7.03663   1.97091   0.04148   1.004E+00   0.000E+00  -4.475E-03
 692  8.16952803   0.767  -0.65940   3.72237   7.03662   1.97089   0.04138   1.004E+00   0.000E+00  -4.469E-03
 693  8.17077444   0.767  -0.65939   3.72237   7.03660   1.97088   0.04128   1.004E+00   0.000E+00  -4.462E-03
 694  8.17201728   0.767  -0.65937   3.72237   7.03658   1.97086   0.04117   1.004E+00   0.000E+00  -4.455E-03
 695  8.17325658   0.767  -0.65935   3.72237   7.03657   1.97084   0.04107   1.004E+00   0.000E+00  -4.448E-03
 696  8.17449235   0.767  -0.65934   3.72236   7.03655   1.97083   0.04097   1.004E+00   0.000E+00  -4.442E-03
 697  8.17572461   0.767  -0.65932   3.72236   7.03653   1.97081   0.04087   1.004E+00   0.000E+00  -4.435E-03
 698  8.17695339   0.767  -0.65931   3.72236   7.03652   1.97080   0.04077   1.004E+00   0.000E+00  -4.426E-03
 699  8.17817870   0.767  -0.65929   3.72236   7.03651   1.97080   0.04071   1.004E+00   0.000E+00  -4.409E-03
 700  8.17940056   0.767  -0.65927   3.72236   7.03650   1.97079   0.04065   1.004E+00   0.000E+00  -4.392E-03
 701  8.18061899   0.767  -0.65926   3.72236   7.03649   1.97079   0.04060   1.004E+00   0.000E+00  -4.375E-03
 702  8.18183402   0.767  -0.65924   3.72236   7.03648   1.97079   0.04054   1.004E+00   0.000E+00  -4.358E-03
 703  8.18304566   0.767  -0.65922   3.72236   7.03647   1.97078   0.04048   1.004E+00   0.000E+00  -4.341E-03
 704  8.18425392   0.767  -0.65921   3.72236   7.03646   1.97078   0.04042   1.004E+00   0.000E+00  -4.325E-03
 705  8.18545884   0.767  -0.65919   3.72236   7.03645   1.97078   0.04036   1.004E+00   0.000E+00  -4.308E-03
 706  8.18666042   0.767  -0.65917   3.72236   7.03644   1.97077   0.04030   1.004E+00   0.000E+00  -4.291E-03
 707  8.18785868   0.767  -0.65916   3.72236   7.03643   1.97077   0.04024   1.004E+00   0.000E+00  -4.274E-03
 708  8.18905365   0.767  -0.65914   3.72235   7.03642   1.97077   0.04018   1.004E+00   0.000E+00  -4.257E-03
 709  8.19024533   0.767  -0.65912   3.72235   7.03642   1.97076   0.04012   1.004E+00   0.000E+00  -4.240E-03
 710  8.19143376   0.767  -0.65911   3.72235   7.03641   1.97076   0.04006   1.004E+00   0.000E+00  -4.224E-03
 711  8.19261895   0.767  -0.65909   3.72235   7.03640   1.97076   0.04000   1.004E+00   0.000E+00  -4.207E-03
 712  8.19380090   0.766  -0.65907   3.72235   7.03639   1.97075   0.03994   1.004E+00   0.000E+00  -4.190E-03
 713  8.19497965   0.766  -0.65906   3.72235   7.03638   1.97075   0.03988   1.004E+00   0.000E+00  -4.173E-03
 714  8.19615521   0.766  -0.65904   3.72235   7.03637   1.97075   0.03982   1.004E+00   0.000E+00  -4.156E-03
 715  8.19732760   0.766  -0.65902   3.72235   7.03636   1.97074   0.03976   1.004E+00   0.000E+00  -4.139E-03
 716  8.19849683   0.766  -0.65901   3.72235   7.03635   1.97074   0.03970   1.004E+00   0.000E+00  -4.123E-03
 717  8.19966292   0.766  -0.65899   3.72235   7.03634   1.97074   0.03964   1.004E+00   0.000E+00  -4.106E-03
 718  8.20082589   0.766  -0.65897   3.72235   7.03633   1.97074   0.03958   1.004E+00   0.000E+00  -4.089E-03
 719  8.20198575   0.766  -0.65896   3.72235   7.03632   1.97073   0.03952   1.004E+00   0.000E+00  -4.072E-03
 720  8.20314252   0.766  -0.65894   3.72235   7.03631   1.97073   0.03946   1.004E+00   0.000E+00  -4.055E-03
 721  8.20429622   0.766  -0.65892   3.72235   7.03630   1.97073   0.03940   1.004E+00   0.000E+00  -4.039E-03
 722  8.20544687   0.766  -0.65891   3.72235   7.03629   1.97072   0.03934   1.004E+00   0.000E+00  -4.022E-03
 723  8.20659447   0.766  -0.65889   3.72235   7.03628   1.97072   0.03928   1.004E+00   0.000E+00  -4.005E-03
 724  8.20773905   0.766  -0.65887   3.72235   7.03628   1.97072   0.03922   1.004E+00   0.000E+00  -3.988E-03
 725  8.20888062   0.766  -0.65886   3.72235   7.03627   1.97071   0.03916   1.004E+00   0.000E+00  -3.971E-03
 726  8.21001919   0.766  -0.65884   3.72235   7.03626   1.97071   0.03910   1.004E+00   0.000E+00  -3.954E-03
 727  8.21115479   0.766  -0.65883   3.72234   7.03625   1.97071   0.03904   1.003E+00   0.000E+00  -3.938E-03
 728  8.21228743   0.766  -0.65881   3.72234   7.03624   1.97070   0.03898   1.003E+00   0.000E+00  -3.921E-03
 729  8.21341712   0.766  -0.65879   3.72234   7.03623   1.97070   0.03892   1.003E+00   0.000E+00  -3.904E-03
 730  8.21454388   0.766  -0.65878   3.72234   7.03622   1.97070   0.03886   1.003E+00   0.000E+00  -3.887E-03
 731  8.21566773   0.766  -0.65876   3.72234   7.03621   1.97069   0.03880   1.003E+00   0.000E+00  -3.870E-03
 732  8.21678867   0.766  -0.65874   3.72234   7.03620   1.97069   0.03874   1.003E+00   0.000E+00  -3.853E-03
 733  8.21790673   0.766  -0.65873   3.72234   7.03619   1.97069   0.03868   1.003E+00   0.000E+00  -3.837E-03
 734  8.21902192   0.766  -0.65871   3.72234   7.03618   1.97068   0.03862   1.003E+00   0.000E+00  -3.820E-03
 735  8.22013425   0.766  -0.65869   3.72234   7.03617   1.97068   0.03856   1.003E+00   0.000E+00  -3.803E-03
 736  8.22124374   0.766  -0.65868   3.72234   7.03616   1.97068   0.03850   1.003E+00   0.000E+00  -3.786E-03
 737  8.22235040   0.766  -0.65866   3.72234   7.03615   1.97067   0.03845   1.003E+00   0.000E+00  -3.769E-03
 738  8.22345425   0.766  -0.65864   3.72234   7.03614   1.97067   0.03839   1.003E+00   0.000E+00  -3.752E-03
 739  8.22455530   0.766  -0.65863   3.72234   7.03614   1.97067   0.03833   1.003E+00   0.000E+00  -3.736E-03
 740  8.22565357   0.766  -0.65861   3.72234   7.03613   1.97067   0.03827   1.003E+00   0.000E+00  -3.719E-03
 741  8.22674906   0.766  -0.65859   3.72234   7.03612   1.97066   0.03821   1.003E+00   0.000E+00  -3.702E-03
 742  8.22784180   0.766  -0.65858   3.72234   7.03611   1.97066   0.03815   1.003E+00   0.000E+00  -3.685E-03
 743  8.22893180   0.766  -0.65856   3.72234   7.03610   1.97066   0.03809   1.003E+00   0.000E+00  -3.668E-03
 744  8.23001907   0.766  -0.65854   3.72234   7.03609   1.97065   0.03803   1.003E+00   0.000E+00  -3.651E-03
 745  8.23110362   0.766  -0.65853   3.72234   7.03608   1.97065   0.03797   1.003E+00   0.000E+00  -3.635E-03
 746  8.23218547   0.766  -0.65851   3.72234   7.03607   1.97065   0.03791   1.003E+00   0.000E+00  -3.618E-03
 747  8.23326463   0.766  -0.65849   3.72233   7.03606   1.97064   0.03785   1.003E+00   0.000E+00  -3.601E-03
 748  8.23434112   0.766  -0.65848   3.72233   7.03605   1.97064   0.03779   1.003E+00   0.000E+00  -3.584E-03
 749  8.23541495   0.766  -0.65846   3.72233   7.03604   1.97064   0.03773   1.003E+00   0.000E+00  -3.567E-03
 750  8.23648613   0.766  -0.65844   3.72233   7.03603   1.97063   0.03767   1.003E+00   0.000E+00  -3.550E-03
 751  8.23755467   0.766  -0.65843   3.72233   7.03602   1.97063   0.03761   1.003E+00   0.000E+00  -3.534E-03
 752  8.23862059   0.766  -0.65841   3.72233   7.03601   1.97063   0.03755   1.003E+00   0.000E+00  -3.517E-03
 753  8.23968390   0.766  -0.65839   3.72233   7.03600   1.97062   0.03749   1.003E+00   0.000E+00  -3.500E-03
 754  8.24074461   0.766  -0.65838   3.72233   7.03600   1.97062   0.03743   1.003E+00   0.000E+00  -3.483E-03
 755  8.24180274   0.766  -0.65836   3.72233   7.03599   1.97062   0.03737   1.003E+00   0.000E+00  -3.466E-03
 756  8.24285830   0.766  -0.65834   3.72233   7.03598   1.97061   0.03731   1.003E+00   0.000E+00  -3.450E-03
 757  8.24391130   0.766  -0.65833   3.72233   7.03597   1.97061   0.03725   1.003E+00   0.000E+00  -3.433E-03
 758  8.24496175   0.766  -0.65831   3.72233   7.03596   1.97061   0.03719   1.003E+00   0.000E+00  -3.416E-03
 759  8.24600966   0.766  -0.65829   3.72233   7.03595   1.97060   0.03713   1.003E+00   0.000E+00  -3.399E-03
 760  8.24705506   0.766  -0.65828   3.72233   7.03594   1.97060   0.03707   1.003E+00   0.000E+00  -3.382E-03
 761  8.24809794   0.766  -0.65826   3.72233   7.03593   1.97060   0.03701   1.003E+00   0.000E+00  -3.365E-03
 762  8.24913832   0.766  -0.65825   3.72233   7.03592   1.97059   0.03695   1.003E+00   0.000E+00  -3.349E-03
 763  8.25017622   0.766  -0.65823   3.72233   7.03591   1.97059   0.03689   1.003E+00   0.000E+00  -3.332E-03
 764  8.25121165   0.766  -0.65821   3.72233   7.03590   1.97059   0.03683   1.003E+00   0.000E+00  -3.315E-03
 765  8.25224461   0.766  -0.65820   3.72233   7.03589   1.97059   0.03677   1.003E+00   0.000E+00  -3.298E-03
 766  8.25327512   0.766  -0.65818   3.72232   7.03588   1.97058   0.03671   1.003E+00   0.000E+00  -3.281E-03
 767  8.25430319   0.766  -0.65816   3.72232   7.03587   1.97058   0.03665   1.003E+00   0.000E+00  -3.264E-03
 768  8.25532883   0.766  -0.65815   3.72232   7.03587   1.97058   0.03659   1.003E+00   0.000E+00  -3.248E-03
 769  8.25635206   0.766  -0.65813   3.72232   7.03586   1.97057   0.03653   1.003E+00   0.000E+00  -3.231E-03
 770  8.25737288   0.766  -0.65811   3.72232   7.03585   1.97057   0.03647   1.003E+00   0.000E+00  -3.214E-03
 771  8.25839131   0.766  -0.65810   3.72232   7.03584   1.97057   0.03641   1.003E+00   0.000E+00  -3.197E-03
 772  8.25940735   0.766  -0.65808   3.72232   7.03583   1.97056   0.03636   1.003E+00   0.000E+00  -3.180E-03
 773  8.26042102   0.766  -0.65806   3.72232   7.03582   1.97056   0.03630   1.003E+00   0.000E+00  -3.163E-03
 774  8.26143234   0.766  -0.65805   3.72232   7.03581   1.97056   0.03624   1.003E+00   0.000E+00  -3.147E-03
 775  8.26244130   0.766  -0.65803   3.72232   7.03580   1.97055   0.03618   1.003E+00   0.000E+00  -3.130E-03
 776  8.26344793   0.766  -0.65801   3.72232   7.03579   1.97055   0.03612   1.003E+00   0.000E+00  -3.113E-03
 777  8.26445222   0.766  -0.65800   3.72232   7.03578   1.97055   0.03606   1.003E+00   0.000E+00  -3.096E-03
 778  8.26545420   0.766  -0.65798   3.72232   7.03577   1.97054   0.03600   1.003E+00   0.000E+00  -3.079E-03
 779  8.26645388   0.766  -0.65796   3.72232   7.03576   1.97054   0.03594   1.003E+00   0.000E+00  -3.062E-03
 780  8.26745125   0.766  -0.65795   3.72232   7.03575   1.97054   0.03588   1.003E+00   0.000E+00  -3.046E-03
 781  8.26844635   0.766  -0.65793   3.72232   7.03574   1.97053   0.03582   1.003E+00   0.000E+00  -3.029E-03
 782  8.26943916   0.766  -0.65791   3.72232   7.03573   1.97053   0.03576   1.003E+00   0.000E+00  -3.012E-03
 783  8.27042972   0.766  -0.65790   3.72232   7.03573   1.97053   0.03570   1.003E+00   0.000E+00  -2.995E-03
 784  8.27141801   0.766  -0.65788   3.72232   7.03572   1.97052   0.03564   1.003E+00   0.000E+00  -2.978E-03
 785  8.27240407   0.766  -0.65786   3.72231   7.03571   1.97052   0.03558   1.002E+00   0.000E+00  -2.962E-03
 786  8.27338789   0.766  -0.65785   3.72231   7.03570   1.97052   0.03552   1.002E+00   0.000E+00  -2.945E-03
 787  8.27436949   0.766  -0.65783   3.72231   7.03569   1.97051   0.03546   1.002E+00   0.000E+00  -2.928E-03
 788  8.27534887   0.766  -0.65781   3.72231   7.03568   1.97051   0.03540   1.002E+00   0.000E+00  -2.911E-03
 789  8.27632605   0.766  -0.65780   3.72231   7.03567   1.97051   0.03534   1.002E+00   0.000E+00  -2.894E-03
 790  8.27730104   0.766  -0.65778   3.72231   7.03566   1.97051   0.03528   1.002E+00   0.000E+00  -2.877E-03
 791  8.27827384   0.766  -0.65776   3.72231   7.03565   1.97050   0.03522   1.002E+00   0.000E+00  -2.861E-03
 792  8.27924447   0.766  -0.65775   3.72231   7.03564   1.97050   0.03516   1.002E+00   0.000E+00  -2.844E-03
 793  8.28021293   0.766  -0.65773   3.72231   7.03563   1.97050   0.03510   1.002E+00   0.000E+00  -2.827E-03
 794  8.28117924   0.766  -0.65771   3.72231   7.03562   1.97049   0.03504   1.002E+00   0.000E+00  -2.810E-03
 795  8.28214341   0.766  -0.65770   3.72231   7.03561   1.97049   0.03498   1.002E+00   0.000E+00  -2.793E-03
 796  8.28310544   0.766  -0.65768   3.72231   7.03560   1.97049   0.03492   1.002E+00   0.000E+00  -2.776E-03
 797  8.28406534   0.766  -0.65767   3.72231   7.03559   1.97048   0.03486   1.002E+00   0.000E+00  -2.760E-03
 798  8.28502312   0.766  -0.65765   3.72231   7.03559   1.97048   0.03480   1.002E+00   0.000E+00  -2.743E-03
 799  8.28597880   0.766  -0.65763   3.72231   7.03558   1.97048   0.03474   1.002E+00   0.000E+00  -2.726E-03
 800  8.28693238   0.766  -0.65762   3.72231   7.03557   1.97047   0.03468   1.002E+00   0.000E+00  -2.709E-03
 801  8.28788387   0.766  -0.65760   3.72231   7.03556   1.97047   0.03462   1.002E+00   0.000E+00  -2.692E-03
 802  8.28883328   0.765  -0.65758   3.72231   7.03555   1.97047   0.03456   1.002E+00   0.000E+00  -2.675E-03
 803  8.28978062   0.765  -0.65757   3.72231   7.03554   1.97046   0.03450   1.002E+00   0.000E+00  -2.659E-03
 804  8.29072589   0.765  -0.65755   3.72230   7.03553   1.97046   0.03444   1.002E+00   0.000E+00  -2.642E-03
 805  8.29166912   0.765  -0.65753   3.72230   7.03552   1.97046   0.03438   1.002E+00   0.000E+00  -2.625E-03
 806  8.29261030   0.765  -0.65752   3.72230   7.03551   1.97045   0.03432   1.002E+00   0.000E+00  -2.608E-03
 807  8.29354944   0.765  -0.65750   3.72230   7.03550   1.97045   0.03426   1.002E+00   0.000E+00  -2.591E-03
 808  8.29448656   0.765  -0.65748   3.72230   7.03549   1.97045   0.03421   1.002E+00   0.000E+00  -2.574E-03
 809  8.29542166   0.765  -0.65747   3.72230   7.03548   1.97044   0.03415   1.002E+00   0.000E+00  -2.558E-03
 810  8.29635475   0.765  -0.65745   3.72230   7.03547   1.97044   0.03409   1.002E+00   0.000E+00  -2.541E-03
 811  8.29728584   0.765  -0.65743   3.72230   7.03546   1.97044   0.03403   1.002E+00   0.000E+00  -2.524E-03
 812  8.29821494   0.765  -0.65742   3.72230   7.03546   1.97044   0.03397   1.002E+00   0.000E+00  -2.507E-03
 813  8.29914205   0.765  -0.65740   3.72230   7.03545   1.97043   0.03391   1.002E+00   0.000E+00  -2.490E-03
 814  8.30006719   0.765  -0.65739   3.72230   7.03544   1.97043   0.03385   1.002E+00   0.000E+00  -2.478E-03
 815  8.30099037   0.765  -0.65737   3.72230   7.03543   1.97043   0.03381   1.002E+00   0.000E+00  -2.473E-03
 816  8.30191158   0.765  -0.65736   3.72230   7.03542   1.97043   0.03376   1.002E+00   0.000E+00  -2.468E-03
 817  8.30283085   0.765  -0.65735   3.72230   7.03542   1.97042   0.03371   1.002E+00   0.000E+00  -2.463E-03
 818  8.30374817   0.765  -0.65733   3.72230   7.03541   1.97042   0.03367   1.002E+00   0.000E+00  -2.458E-03
 819  8.30466356   0.765  -0.65732   3.72230   7.03541   1.97042   0.03362   1.002E+00   0.000E+00  -2.453E-03
 820  8.30557703   0.765  -0.65731   3.72230   7.03540   1.97042   0.03358   1.002E+00   0.000E+00  -2.448E-03
 821  8.30648857   0.765  -0.65730   3.72230   7.03539   1.97042   0.03353   1.002E+00   0.000E+00  -2.443E-03
 822  8.30739821   0.765  -0.65728   3.72230   7.03539   1.97042   0.03349   1.002E+00   0.000E+00  -2.438E-03
 823  8.30830595   0.765  -0.65727   3.72230   7.03538   1.97041   0.03344   1.002E+00   0.000E+00  -2.433E-03
 824  8.30921179   0.765  -0.65726   3.72230   7.03537   1.97041   0.03339   1.002E+00   0.000E+00  -2.428E-03
 825  8.31011575   0.765  -0.65724   3.72230   7.03537   1.97041   0.03335   1.002E+00   0.000E+00  -2.423E-03
 826  8.31101783   0.765  -0.65723   3.72229   7.03536   1.97041   0.03330   1.002E+00   0.000E+00  -2.418E-03
 827  8.31191804   0.765  -0.65722   3.72229   7.03535   1.97041   0.03326   1.002E+00   0.000E+00  -2.413E-03
 828  8.31281639   0.765  -0.65721   3.72229   7.03535   1.97040   0.03321   1.002E+00   0.000E+00  -2.408E-03
 829  8.31371289   0.765  -0.65719   3.72229   7.03534   1.97040   0.03317   1.002E+00   0.000E+00  -2.404E-03
 830  8.31460753   0.765  -0.65718   3.72229   7.03533   1.97040   0.03312   1.002E+00   0.000E+00  -2.399E-03
 831  8.31550034   0.765  -0.65717   3.72229   7.03533   1.97040   0.03307   1.002E+00   0.000E+00  -2.394E-03
 832  8.31639132   0.765  -0.65716   3.72229   7.03532   1.97040   0.03303   1.002E+00   0.000E+00  -2.389E-03
 833  8.31728047   0.765  -0.65714   3.72229   7.03531   1.97040   0.03298   1.002E+00   0.000E+00  -2.384E-03
 834  8.31816781   0.765  -0.65713   3.72229   7.03531   1.97039   0.03294   1.002E+00   0.000E+00  -2.379E-03
 835  8.31905333   0.765  -0.65712   3.72229   7.03530   1.97039   0.03289   1.002E+00   0.000E+00  -2.374E-03
 836  8.31993706   0.765  -0.65710   3.72229   7.03530   1.97039   0.03284   1.002E+00   0.000E+00  -2.369E-03
 837  8.32081899   0.765  -0.65709   3.72229   7.03529   1.97039   0.03280   1.002E+00   0.000E+00  -2.364E-03
 838  8.32169913   0.765  -0.65708   3.72229   7.03528   1.97039   0.03275   1.002E+00   0.000E+00  -2.359E-03
 839  8.32257750   0.765  -0.65707   3.72229   7.03528   1.97039   0.03271   1.002E+00   0.000E+00  -2.354E-03
 840  8.32345408   0.765  -0.65705   3.72229   7.03527   1.97038   0.03266   1.002E+00   0.000E+00  -2.349E-03
 841  8.32432891   0.765  -0.65704   3.72229   7.03526   1.97038   0.03262   1.002E+00   0.000E+00  -2.344E-03
 842  8.32520197   0.765  -0.65703   3.72229   7.03526   1.97038   0.03257   1.002E+00   0.000E+00  -2.339E-03
 843  8.32607329   0.765  -0.65702   3.72229   7.03525   1.97038   0.03252   1.002E+00   0.000E+00  -2.334E-03
 844  8.32694286   0.765  -0.65700   3.72229   7.03524   1.97038   0.03248   1.002E+00   0.000E+00  -2.329E-03
 845  8.32781069   0.765  -0.65699   3.72229   7.03524   1.97038   0.03243   1.002E+00   0.000E+00  -2.324E-03
 846  8.32867679   0.765  -0.65698   3.72229   7.03523   1.97037   0.03239   1.002E+00   0.000E+00  -2.319E-03
 847  8.32954117   0.765  -0.65696   3.72229   7.03522   1.97037   0.03234   1.002E+00   0.000E+00  -2.314E-03
 848  8.33040383   0.765  -0.65695   3.72229   7.03522   1.97037   0.03229   1.002E+00   0.000E+00  -2.309E-03
 849  8.33126478   0.765  -0.65694   3.72229   7.03521   1.97037   0.03225   1.002E+00   0.000E+00  -2.304E-03
 850  8.33212402   0.765  -0.65693   3.72228   7.03520   1.97037   0.03220   1.002E+00   0.000E+00  -2.299E-03
 851  8.33298157   0.765  -0.65691   3.72228   7.03520   1.97036   0.03216   1.002E+00   0.000E+00  -2.294E-03
 852  8.33383743   0.765  -0.65690   3.72228   7.03519   1.97036   0.03211   1.002E+00   0.000E+00  -2.289E-03
 853  8.33469161   0.765  -0.65689   3.72228   7.03519   1.97036   0.03207   1.002E+00   0.000E+00  -2.284E-03
 854  8.33554411   0.765  -0.65687   3.72228   7.03518   1.97036   0.03202   1.002E+00   0.000E+00  -2.279E-03
 855  8.33639494   0.765  -0.65686   3.72228   7.03517   1.97036   0.03197   1.002E+00   0.000E+00  -2.274E-03
 856  8.33724411   0.765  -0.65685   3.72228   7.03517   1.97036   0.03193   1.002E+00   0.000E+00  -2.269E-03
 857  8.33809161   0.765  -0.65684   3.72228   7.03516   1.97035   0.03188   1.002E+00   0.000E+00  -2.264E-03
 858  8.33893747   0.765  -0.65682   3.72228   7.03515   1.97035   0.03184   1.002E+00   0.000E+00  -2.259E-03
 859  8.33978169   0.765  -0.65681   3.72228   7.03515   1.97035   0.03179   1.002E+00   0.000E+00  -2.254E-03
 860  8.34062426   0.765  -0.65680   3.72228   7.03514   1.97035   0.03174   1.002E+00   0.000E+00  -2.249E-03
 861  8.34146521   0.765  -0.65679   3.72228   7.03513   1.97035   0.03170   1.002E+00   0.000E+00  -2.244E-03
 862  8.34230453   0.765  -0.65677   3.72228   7.03513   1.97035   0.03165   1.002E+00   0.000E+00  -2.239E-03
 863  8.34314223   0.765  -0.65676   3.72228   7.03512   1.97034   0.03161   1.002E+00   0.000E+00  -2.235E-03
 864  8.34397832   0.765  -0.65675   3.72228   7.03511   1.97034   0.03156   1.002E+00   0.000E+00  -2.230E-03
 865  8.34481280   0.765  -0.65673   3.72228   7.03511   1.97034   0.03152   1.002E+00   0.000E+00  -2.225E-03
 866  8.34564568   0.765  -0.65672   3.72228   7.03510   1.97034   0.03147   1.002E+00   0.000E+00  -2.220E-03
 867  8.34647697   0.765  -0.65671   3.72228   7.03510   1.97034   0.03142   1.002E+00   0.000E+00  -2.215E-03
 868  8.34730666   0.765  -0.65670   3.72228   7.03509   1.97034   0.03138   1.002E+00   0.000E+00  -2.210E-03
 869  8.34813478   0.765  -0.65668   3.72228   7.03508   1.97033   0.03133   1.002E+00   0.000E+00  -2.205E-03
 870  8.34896132   0.765  -0.65667   3.72228   7.03508   1.97033   0.03129   1.002E+00   0.000E+00  -2.200E-03
 871  8.34978629   0.765  -0.65666   3.72228   7.03507   1.97033   0.03124   1.002E+00   0.000E+00  -2.195E-03
 872  8.35060970   0.765  -0.65665   3.72228   7.03506   1.97033   0.03120   1.002E+00   0.000E+00  -2.190E-03
 873  8.35143155   0.765  -0.65663   3.72228   7.03506   1.97033   0.03115   1.002E+00   0.000E+00  -2.185E-03
 874  8.35225184   0.765  -0.65662   3.72227   7.03505   1.97032   0.03110   1.002E+00   0.000E+00  -2.180E-03
 875  8.35307059   0.765  -0.65661   3.72227   7.03504   1.97032   0.03106   1.002E+00   0.000E+00  -2.175E-03
 876  8.35388780   0.765  -0.65659   3.72227   7.03504   1.97032   0.03101   1.002E+00   0.000E+00  -2.170E-03
 877  8.35470347   0.765  -0.65658   3.72227   7.03503   1.97032   0.03097   1.002E+00   0.000E+00  -2.165E-03
 878  8.35551762   0.765  -0.65657   3.72227   7.03502   1.97032   0.03092   1.002E+00   0.000E+00  -2.160E-03
 879  8.35633024   0.765  -0.65656   3.72227   7.03502   1.97032   0.03087   1.002E+00   0.000E+00  -2.155E-03
 880  8.35714134   0.765  -0.65654   3.72227   7.03501   1.97031   0.03083   1.002E+00   0.000E+00  -2.150E-03
 881  8.35795094   0.765  -0.65653   3.72227   7.03500   1.97031   0.03078   1.002E+00   0.000E+00  -2.145E-03
 882  8.35875902   0.765  -0.65652   3.72227   7.03500   1.97031   0.03074   1.002E+00   0.000E+00  -2.140E-03
 883  8.35956561   0.765  -0.65650   3.72227   7.03499   1.97031   0.03069   1.002E+00   0.000E+00  -2.135E-03
 884  8.36037069   0.765  -0.65649   3.72227   7.03499   1.97031   0.03065   1.002E+00   0.000E+00  -2.130E-03
 885  8.36117429   0.765  -0.65648   3.72227   7.03498   1.97031   0.03060   1.002E+00   0.000E+00  -2.125E-03
 886  8.36197641   0.765  -0.65647   3.72227   7.03497   1.97030   0.03055   1.002E+00   0.000E+00  -2.120E-03
 887  8.36277705   0.765  -0.65645   3.72227   7.03497   1.97030   0.03051   1.002E+00   0.000E+00  -2.115E-03
 888  8.36357621   0.764  -0.65644   3.72227   7.03496   1.97030   0.03046   1.002E+00   0.000E+00  -2.110E-03
 889  8.36437391   0.764  -0.65643   3.72227   7.03495   1.97030   0.03042   1.002E+00   0.000E+00  -2.105E-03
 890  8.36517014   0.764  -0.65642   3.72227   7.03495   1.97030   0.03037   1.002E+00   0.000E+00  -2.100E-03
 891  8.36596491   0.764  -0.65640   3.72227   7.03494   1.97030   0.03032   1.002E+00   0.000E+00  -2.095E-03
 892  8.36675824   0.764  -0.65639   3.72227   7.03493   1.97029   0.03028   1.002E+00   0.000E+00  -2.090E-03
 893  8.36755012   0.764  -0.65638   3.72227   7.03493   1.97029   0.03023   1.002E+00   0.000E+00  -2.085E-03
 894  8.36834055   0.764  -0.65636   3.72227   7.03492   1.97029   0.03019   1.002E+00   0.000E+00  -2.080E-03
 895  8.36912955   0.764  -0.65635   3.72227   7.03491   1.97029   0.03014   1.002E+00   0.000E+00  -2.075E-03
 896  8.36991712   0.764  -0.65634   3.72227   7.03491   1.97029   0.03010   1.002E+00   0.000E+00  -2.070E-03
 897  8.37070327   0.764  -0.65633   3.72227   7.03490   1.97028   0.03005   1.002E+00   0.000E+00  -2.065E-03
 898  8.37148799   0.764  -0.65631   3.72227   7.03489   1.97028   0.03000   1.002E+00   0.000E+00  -2.061E-03
 899  8.37227130   0.764  -0.65630   3.72226   7.03489   1.97028   0.02996   1.002E+00   0.000E+00  -2.056E-03
 900  8.37305319   0.764  -0.65629   3.72226   7.03488   1.97028   0.02991   1.002E+00   0.000E+00  -2.051E-03
 901  8.37383369   0.764  -0.65628   3.72226   7.03488   1.97028   0.02987   1.002E+00   0.000E+00  -2.046E-03
 902  8.37461278   0.764  -0.65626   3.72226   7.03487   1.97028   0.02982   1.002E+00   0.000E+00  -2.041E-03
 903  8.37539048   0.764  -0.65625   3.72226   7.03486   1.97027   0.02977   1.002E+00   0.000E+00  -2.036E-03
 904  8.37616678   0.764  -0.65624   3.72226   7.03486   1.97027   0.02973   1.002E+00   0.000E+00  -2.031E-03
 905  8.37694171   0.764  -0.65622   3.72226   7.03485   1.97027   0.02968   1.002E+00   0.000E+00  -2.026E-03
 906  8.37771525   0.764  -0.65621   3.72226   7.03484   1.97027   0.02964   1.002E+00   0.000E+00  -2.021E-03
 907  8.37848741   0.764  -0.65620   3.72226   7.03484   1.97027   0.02959   1.002E+00   0.000E+00  -2.016E-03
 908  8.37925821   0.764  -0.65619   3.72226   7.03483   1.97027   0.02955   1.002E+00   0.000E+00  -2.011E-03
 909  8.38002764   0.764  -0.65617   3.72226   7.03482   1.97026   0.02950   1.002E+00   0.000E+00  -2.006E-03
 910  8.38079571   0.764  -0.65616   3.72226   7.03482   1.97026   0.02945   1.002E+00   0.000E+00  -2.001E-03
 911  8.38156242   0.764  -0.65615   3.72226   7.03481   1.97026   0.02941   1.002E+00   0.000E+00  -1.996E-03
 912  8.38232779   0.764  -0.65613   3.72226   7.03480   1.97026   0.02936   1.002E+00   0.000E+00  -1.991E-03
 913  8.38309180   0.764  -0.65612   3.72226   7.03480   1.97026   0.02932   1.002E+00   0.000E+00  -1.986E-03
 914  8.38385448   0.764  -0.65611   3.72226   7.03479   1.97026   0.02927   1.002E+00   0.000E+00  -1.981E-03
 915  8.38461581   0.764  -0.65610   3.72226   7.03478   1.97025   0.02922   1.002E+00   0.000E+00  -1.976E-03
 916  8.38537582   0.764  -0.65608   3.72226   7.03478   1.97025   0.02918   1.002E+00   0.000E+00  -1.971E-03
 917  8.38613450   0.764  -0.65607   3.72226   7.03477   1.97025   0.02913   1.002E+00   0.000E+00  -1.966E-03
 918  8.38689185   0.764  -0.65606   3.72226   7.03477   1.97025   0.02909   1.002E+00   0.000E+00  -1.961E-03
 919  8.38764789   0.764  -0.65605   3.72226   7.03476   1.97025   0.02904   1.002E+00   0.000E+00  -1.956E-03
 920  8.38840261   0.764  -0.65603   3.72226   7.03475   1.97024   0.02900   1.002E+00   0.000E+00  -1.951E-03
 921  8.38915602   0.764  -0.65602   3.72226   7.03475   1.97024   0.02895   1.002E+00   0.000E+00  -1.946E-03
 922  8.38990813   0.764  -0.65601   3.72226   7.03474   1.97024   0.02890   1.002E+00   0.000E+00  -1.941E-03
 923  8.39065894   0.764  -0.65599   3.72225   7.03473   1.97024   0.02886   1.002E+00   0.000E+00  -1.936E-03
 924  8.39140845   0.764  -0.65598   3.72225   7.03473   1.97024   0.02881   1.002E+00   0.000E+00  -1.931E-03
 925  8.39215667   0.764  -0.65597   3.72225   7.03472   1.97024   0.02877   1.002E+00   0.000E+00  -1.926E-03
 926  8.39290360   0.764  -0.65596   3.72225   7.03471   1.97023   0.02872   1.002E+00   0.000E+00  -1.921E-03
 927  8.39364925   0.764  -0.65594   3.72225   7.03471   1.97023   0.02868   1.002E+00   0.000E+00  -1.916E-03
 928  8.39439363   0.764  -0.65593   3.72225   7.03470   1.97023   0.02863   1.002E+00   0.000E+00  -1.911E-03
 929  8.39513673   0.764  -0.65592   3.72225   7.03469   1.97023   0.02858   1.002E+00   0.000E+00  -1.906E-03
 930  8.39587856   0.764  -0.65591   3.72225   7.03469   1.97023   0.02854   1.002E+00   0.000E+00  -1.901E-03
 931  8.39661912   0.764  -0.65589   3.72225   7.03468   1.97023   0.02849   1.002E+00   0.000E+00  -1.896E-03
 932  8.39735843   0.764  -0.65588   3.72225   7.03467   1.97022   0.02845   1.002E+00   0.000E+00  -1.892E-03
 933  8.39809647   0.764  -0.65587   3.72225   7.03467   1.97022   0.02840   1.002E+00   0.000E+00  -1.887E-03
 934  8.39883327   0.764  -0.65585   3.72225   7.03466   1.97022   0.02835   1.002E+00   0.000E+00  -1.882E-03
 935  8.39956882   0.764  -0.65584   3.72225   7.03466   1.97022   0.02832   1.002E+00   0.000E+00  -1.877E-03
 936  8.40030312   0.764  -0.65583   3.72225   7.03465   1.97022   0.02830   1.002E+00   0.000E+00  -1.873E-03
 937  8.40103619   0.764  -0.65582   3.72225   7.03465   1.97023   0.02827   1.002E+00   0.000E+00  -1.868E-03
 938  8.40176802   0.764  -0.65581   3.72225   7.03465   1.97023   0.02824   1.002E+00   0.000E+00  -1.864E-03
 939  8.40249862   0.764  -0.65580   3.72225   7.03464   1.97023   0.02822   1.002E+00   0.000E+00  -1.860E-03
 940  8.40322799   0.764  -0.65579   3.72225   7.03464   1.97023   0.02819   1.002E+00   0.000E+00  -1.855E-03
 941  8.40395614   0.764  -0.65577   3.72225   7.03464   1.97023   0.02816   1.002E+00   0.000E+00  -1.851E-03
 942  8.40468307   0.764  -0.65576   3.72225   7.03463   1.97024   0.02814   1.002E+00   0.000E+00  -1.847E-03
 943  8.40540878   0.764  -0.65575   3.72225   7.03463   1.97024   0.02811   1.002E+00   0.000E+00  -1.842E-03
 944  8.40613329   0.764  -0.65574   3.72225   7.03463   1.97024   0.02808   1.002E+00   0.000E+00  -1.838E-03
 945  8.40685659   0.764  -0.65573   3.72225   7.03462   1.97024   0.02806   1.002E+00   0.000E+00  -1.834E-03
 946  8.40757868   0.764  -0.65572   3.72225   7.03462   1.97024   0.02803   1.002E+00   0.000E+00  -1.829E-03
 947  8.40829958   0.764  -0.65571   3.72225   7.03461   1.97025   0.02800   1.002E+00   0.000E+00  -1.825E-03
 948  8.40901928   0.764  -0.65569   3.72225   7.03461   1.97025   0.02798   1.002E+00   0.000E+00  -1.821E-03
 949  8.40973779   0.764  -0.65568   3.72225   7.03461   1.97025   0.02795   1.002E+00   0.000E+00  -1.816E-03
 950  8.41045512   0.764  -0.65567   3.72225   7.03460   1.97025   0.02793   1.002E+00   0.000E+00  -1.812E-03
 951  8.41117126   0.764  -0.65566   3.72225   7.03460   1.97025   0.02790   1.002E+00   0.000E+00  -1.808E-03
 952  8.41188622   0.764  -0.65565   3.72225   7.03460   1.97025   0.02787   1.002E+00   0.000E+00  -1.803E-03
 953  8.41260001   0.764  -0.65564   3.72225   7.03459   1.97026   0.02785   1.002E+00   0.000E+00  -1.799E-03
 954  8.41331263   0.764  -0.65563   3.72225   7.03459   1.97026   0.02782   1.002E+00   0.000E+00  -1.795E-03
 955  8.41402407   0.764  -0.65562   3.72225   7.03459   1.97026   0.02779   1.002E+00   0.000E+00  -1.790E-03
 956  8.41473436   0.764  -0.65560   3.72225   7.03458   1.97026   0.02777   1.002E+00   0.000E+00  -1.786E-03
 957  8.41544349   0.764  -0.65559   3.72225   7.03458   1.97026   0.02774   1.002E+00   0.000E+00  -1.782E-03
 958  8.41615146   0.764  -0.65558   3.72225   7.03458   1.97027   0.02771   1.002E+00   0.000E+00  -1.777E-03
 959  8.41685827   0.764  -0.65557   3.72225   7.03457   1.97027   0.02769   1.002E+00   0.000E+00  -1.773E-03
 960  8.41756394   0.764  -0.65556   3.72225   7.03457   1.97027   0.02766   1.002E+00   0.000E+00  -1.769E-03
 961  8.41826847   0.764  -0.65555   3.72225   7.03456   1.97027   0.02763   1.002E+00   0.000E+00  -1.764E-03
 962  8.41897185   0.764  -0.65554   3.72225   7.03456   1.97027   0.02761   1.002E+00   0.000E+00  -1.760E-03
 963  8.41967410   0.764  -0.65552   3.72225   7.03456   1.97028   0.02758   1.002E+00   0.000E+00  -1.756E-03
 964  8.42037521   0.764  -0.65551   3.72225   7.03455   1.97028   0.02756   1.002E+00   0.000E+00  -1.751E-03
 965  8.42107519   0.764  -0.65550   3.72225   7.03455   1.97028   0.02753   1.002E+00   0.000E+00  -1.747E-03
 966  8.42177405   0.764  -0.65549   3.72225   7.03455   1.97028   0.02750   1.002E+00   0.000E+00  -1.742E-03
 967  8.42247178   0.764  -0.65548   3.72225   7.03454   1.97028   0.02748   1.002E+00   0.000E+00  -1.738E-03
 968  8.42316839   0.764  -0.65547   3.72225   7.03454   1.97029   0.02745   1.002E+00   0.000E+00  -1.734E-03
 969  8.42386389   0.764  -0.65546   3.72225   7.03454   1.97029   0.02742   1.002E+00   0.000E+00  -1.729E-03
 970  8.42455828   0.764  -0.65544   3.72225   7.03453   1.97029   0.02740   1.002E+00   0.000E+00  -1.725E-03
 971  8.42525156   0.764  -0.65543   3.72225   7.03453   1.97029   0.02737   1.002E+00   0.000E+00  -1.721E-03
 972  8.42594373   0.764  -0.65542   3.72225   7.03453   1.97029   0.02734   1.002E+00   0.000E+00  -1.716E-03
 973  8.42663480   0.763  -0.65541   3.72225   7.03452   1.97030   0.02732   1.002E+00   0.000E+00  -1.712E-03
 974  8.42732477   0.763  -0.65540   3.72225   7.03452   1.97030   0.02729   1.002E+00   0.000E+00  -1.708E-03
 975  8.42801365   0.763  -0.65539   3.72225   7.03451   1.97030   0.02727   1.002E+00   0.000E+00  -1.703E-03
 976  8.42870144   0.763  -0.65538   3.72225   7.03451   1.97030   0.02724   1.002E+00   0.000E+00  -1.699E-03
 977  8.42938814   0.763  -0.65537   3.72225   7.03451   1.97030   0.02721   1.002E+00   0.000E+00  -1.695E-03
 978  8.43007376   0.763  -0.65535   3.72225   7.03450   1.97031   0.02719   1.002E+00   0.000E+00  -1.690E-03
 979  8.43075829   0.763  -0.65534   3.72225   7.03450   1.97031   0.02716   1.002E+00   0.000E+00  -1.686E-03
 980  8.43144175   0.763  -0.65533   3.72225   7.03450   1.97031   0.02713   1.002E+00   0.000E+00  -1.682E-03
 981  8.43212414   0.763  -0.65532   3.72225   7.03449   1.97031   0.02711   1.002E+00   0.000E+00  -1.677E-03
 982  8.43280545   0.763  -0.65531   3.72225   7.03449   1.97031   0.02708   1.002E+00   0.000E+00  -1.673E-03
 983  8.43348570   0.763  -0.65530   3.72225   7.03449   1.97032   0.02705   1.002E+00   0.000E+00  -1.669E-03
 984  8.43416488   0.763  -0.65529   3.72225   7.03448   1.97032   0.02703   1.002E+00   0.000E+00  -1.664E-03
 985  8.43484300   0.763  -0.65527   3.72225   7.03448   1.97032   0.02700   1.002E+00   0.000E+00  -1.660E-03
 986  8.43552007   0.763  -0.65526   3.72225   7.03448   1.97032   0.02697   1.002E+00   0.000E+00  -1.656E-03
 987  8.43619608   0.763  -0.65525   3.72225   7.03447   1.97032   0.02695   1.002E+00   0.000E+00  -1.651E-03
 988  8.43687104   0.763  -0.65524   3.72225   7.03447   1.97033   0.02692   1.002E+00   0.000E+00  -1.647E-03
 989  8.43754496   0.763  -0.65523   3.72225   7.03446   1.97033   0.02690   1.002E+00   0.000E+00  -1.643E-03
 990  8.43821783   0.763  -0.65522   3.72225   7.03446   1.97033   0.02687   1.002E+00   0.000E+00  -1.638E-03
 991  8.43888965   0.763  -0.65521   3.72225   7.03446   1.97033   0.02684   1.002E+00   0.000E+00  -1.634E-03
 992  8.43956044   0.763  -0.65519   3.72225   7.03445   1.97033   0.02682   1.002E+00   0.000E+00  -1.630E-03
 993  8.44023020   0.763  -0.65518   3.72225   7.03445   1.97034   0.02679   1.002E+00   0.000E+00  -1.625E-03
 994  8.44089893   0.763  -0.65517   3.72225   7.03445   1.97034   0.02676   1.002E+00   0.000E+00  -1.621E-03
 995  8.44156662   0.763  -0.65516   3.72225   7.03444   1.97034   0.02674   1.002E+00   0.000E+00  -1.617E-03
 996  8.44223330   0.763  -0.65515   3.72225   7.03444   1.97034   0.02671   1.002E+00   0.000E+00  -1.612E-03
 997  8.44289895   0.763  -0.65514   3.72225   7.03444   1.97034   0.02668   1.002E+00   0.000E+00  -1.608E-03
 998  8.44356358   0.763  -0.65513   3.72225   7.03443   1.97035   0.02666   1.002E+00   0.000E+00  -1.604E-03
 999  8.44422719   0.763  -0.65512   3.72225   7.03443   1.97035   0.02663   1.002E+00   0.000E+00  -1.599E-03
1000  8.44488980   0.763  -0.65510   3.72225   7.03443   1.97035   0.02660   1.002E+00   0.000E+00  -1.595E-03
1001  8.44555139   0.763  -0.65509   3.72225   7.03442   1.97035   0.02658   1.002E+00   0.000E+00  -1.591E-03
1002  8.44621198   0.763  -0.65508   3.72225   7.03442   1.97035   0.02655   1.002E+00   0.000E+00  -1.586E-03
1003  8.44687156   0.763  -0.65507   3.72225   7.03441   1.97036   0.02653   1.002E+00   0.000E+00  -1.582E-03
1004  8.44753015   0.763  -0.65506   3.72225   7.03441   1.97036   0.02650   1.002E+00   0.000E+00  -1.578E-03
1005  8.44818773   0.763  -0.65505   3.72225   7.03441   1.97036   0.02647   1.002E+00   0.000E+00  -1.573E-03
1006  8.44884433   0.763  -0.65504   3.72225   7.03440   1.97036   0.02645   1.002E+00   0.000E+00  -1.569E-03
1007  8.44949993   0.763  -0.65502   3.72225   7.03440   1.97036   0.02642   1.002E+00   0.000E+00  -1.565E-03
1008  8.45015454   0.763  -0.65501   3.72225   7.03440   1.97037   0.02639   1.002E+00   0.000E+00  -1.560E-03
1009  8.45080817   0.763  -0.65500   3.72225   7.03439   1.97037   0.02637   1.002E+00   0.000E+00  -1.556E-03
1010  8.45146082   0.763  -0.65499   3.72225   7.03439   1.97037   0.02634   1.002E+00   0.000E+00  -1.552E-03
1011  8.45211248   0.763  -0.65498   3.72225   7.03439   1.97037   0.02631   1.002E+00   0.000E+00  -1.547E-03
1012  8.45276317   0.763  -0.65497   3.72225   7.03438   1.97037   0.02629   1.002E+00   0.000E+00  -1.543E-03
1013  8.45341289   0.763  -0.65496   3.72226   7.03438   1.97038   0.02626   1.001E+00   0.000E+00  -1.539E-03
1014  8.45406164   0.763  -0.65494   3.72226   7.03438   1.97038   0.02623   1.001E+00   0.000E+00  -1.534E-03
1015  8.45470942   0.763  -0.65493   3.72226   7.03437   1.97038   0.02621   1.001E+00   0.000E+00  -1.530E-03
1016  8.45535623   0.763  -0.65492   3.72226   7.03437   1.97038   0.02618   1.001E+00   0.000E+00  -1.525E-03
1017  8.45600208   0.763  -0.65491   3.72226   7.03436   1.97038   0.02616   1.001E+00   0.000E+00  -1.521E-03
1018  8.45664698   0.763  -0.65490   3.72226   7.03436   1.97039   0.02613   1.001E+00   0.000E+00  -1.517E-03
1019  8.45729091   0.763  -0.65489   3.72226   7.03436   1.97039   0.02610   1.001E+00   0.000E+00  -1.512E-03
1020  8.45793390   0.763  -0.65488   3.72226   7.03435   1.97039   0.02608   1.001E+00   0.000E+00  -1.508E-03
1021  8.45857593   0.763  -0.65487   3.72226   7.03435   1.97039   0.02605   1.001E+00   0.000E+00  -1.504E-03
1022  8.45921701   0.763  -0.65485   3.72226   7.03435   1.97039   0.02602   1.001E+00   0.000E+00  -1.499E-03
1023  8.45985715   0.763  -0.65484   3.72226   7.03434   1.97040   0.02600   1.001E+00   0.000E+00  -1.495E-03
1024  8.46049635   0.763  -0.65483   3.72226   7.03434   1.97040   0.02597   1.001E+00   0.000E+00  -1.491E-03
1025  8.46113461   0.763  -0.65482   3.72226   7.03434   1.97040   0.02594   1.001E+00   0.000E+00  -1.486E-03
1026  8.46177193   0.763  -0.65481   3.72226   7.03433   1.97040   0.02592   1.001E+00   0.000E+00  -1.482E-03
1027  8.46240832   0.763  -0.65480   3.72226   7.03433   1.97040   0.02589   1.001E+00   0.000E+00  -1.478E-03
1028  8.46304378   0.763  -0.65479   3.72226   7.03433   1.97041   0.02586   1.001E+00   0.000E+00  -1.473E-03
1029  8.46367831   0.763  -0.65477   3.72226   7.03432   1.97041   0.02584   1.001E+00   0.000E+00  -1.469E-03
1030  8.46431191   0.763  -0.65476   3.72226   7.03432   1.97041   0.02581   1.001E+00   0.000E+00  -1.465E-03
1031  8.46494459   0.763  -0.65475   3.72226   7.03431   1.97041   0.02579   1.001E+00   0.000E+00  -1.460E-03
1032  8.46557635   0.763  -0.65474   3.72226   7.03431   1.97041   0.02576   1.001E+00   0.000E+00  -1.456E-03
1033  8.46620719   0.763  -0.65473   3.72226   7.03431   1.97042   0.02573   1.001E+00   0.000E+00  -1.452E-03
1034  8.46683712   0.763  -0.65472   3.72226   7.03430   1.97042   0.02571   1.001E+00   0.000E+00  -1.447E-03
1035  8.46746613   0.763  -0.65471   3.72226   7.03430   1.97042   0.02568   1.001E+00   0.000E+00  -1.443E-03
1036  8.46809424   0.763  -0.65469   3.72226   7.03430   1.97042   0.02565   1.001E+00   0.000E+00  -1.439E-03
1037  8.46872143   0.763  -0.65468   3.72226   7.03429   1.97042   0.02563   1.001E+00   0.000E+00  -1.434E-03
1038  8.46934773   0.763  -0.65467   3.72226   7.03429   1.97043   0.02560   1.001E+00   0.000E+00  -1.430E-03
1039  8.46997312   0.763  -0.65466   3.72226   7.03429   1.97043   0.02557   1.001E+00   0.000E+00  -1.426E-03
1040  8.47059761   0.763  -0.65465   3.72226   7.03428   1.97043   0.02555   1.001E+00   0.000E+00  -1.421E-03
1041  8.47122121   0.763  -0.65464   3.72226   7.03428   1.97043   0.02552   1.001E+00   0.000E+00  -1.417E-03
1042  8.47184391   0.763  -0.65463   3.72226   7.03428   1.97043   0.02549   1.001E+00   0.000E+00  -1.413E-03
1043  8.47246572   0.763  -0.65462   3.72226   7.03427   1.97044   0.02547   1.001E+00   0.000E+00  -1.408E-03
1044  8.47308664   0.763  -0.65460   3.72226   7.03427   1.97044   0.02544   1.001E+00   0.000E+00  -1.404E-03
1045  8.47370667   0.763  -0.65459   3.72226   7.03426   1.97044   0.02542   1.001E+00   0.000E+00  -1.400E-03
1046  8.47432582   0.763  -0.65458   3.72226   7.03426   1.97044   0.02539   1.001E+00   0.000E+00  -1.395E-03
1047  8.47494409   0.763  -0.65457   3.72226   7.03426   1.97044   0.02536   1.001E+00   0.000E+00  -1.391E-03
1048  8.47556148   0.763  -0.65456   3.72226   7.03425   1.97044   0.02534   1.001E+00   0.000E+00  -1.387E-03
1049  8.47617799   0.763  -0.65455   3.72226   7.03425   1.97045   0.02531   1.001E+00   0.000E+00  -1.382E-03
1050  8.47679363   0.763  -0.65454   3.72226   7.03425   1.97045   0.02528   1.001E+00   0.000E+00  -1.378E-03
1051  8.47740840   0.763  -0.65452   3.72226   7.03424   1.97045   0.02526   1.001E+00   0.000E+00  -1.374E-03
1052  8.47802230   0.763  -0.65451   3.72226   7.03424   1.97045   0.02523   1.001E+00   0.000E+00  -1.369E-03
1053  8.47863533   0.763  -0.65450   3.72226   7.03424   1.97045   0.02520   1.001E+00   0.000E+00  -1.365E-03
1054  8.47924750   0.763  -0.65449   3.72226   7.03423   1.97046   0.02518   1.001E+00   0.000E+00  -1.361E-03
1055  8.47985881   0.763  -0.65448   3.72226   7.03423   1.97046   0.02515   1.001E+00   0.000E+00  -1.356E-03
1056  8.48046925   0.762  -0.65447   3.72226   7.03423   1.97046   0.02512   1.001E+00   0.000E+00  -1.352E-03
1057  8.48107884   0.762  -0.65446   3.72226   7.03422   1.97046   0.02510   1.001E+00   0.000E+00  -1.348E-03
1058  8.48168758   0.762  -0.65444   3.72226   7.03422   1.97046   0.02507   1.001E+00   0.000E+00  -1.343E-03
1059  8.48229546   0.762  -0.65443   3.72226   7.03421   1.97047   0.02505   1.001E+00   0.000E+00  -1.339E-03
1060  8.48290250   0.762  -0.65442   3.72226   7.03421   1.97047   0.02502   1.001E+00   0.000E+00  -1.335E-03
1061  8.48350869   0.762  -0.65441   3.72226   7.03421   1.97047   0.02499   1.001E+00   0.000E+00  -1.330E-03
1062  8.48411403   0.762  -0.65440   3.72226   7.03420   1.97047   0.02497   1.001E+00   0.000E+00  -1.326E-03
1063  8.48471853   0.762  -0.65439   3.72226   7.03420   1.97047   0.02494   1.001E+00   0.000E+00  -1.322E-03
1064  8.48532219   0.762  -0.65438   3.72226   7.03420   1.97048   0.02491   1.001E+00   0.000E+00  -1.317E-03
1065  8.48592501   0.762  -0.65437   3.72226   7.03419   1.97048   0.02489   1.001E+00   0.000E+00  -1.313E-03
1066  8.48652699   0.762  -0.65435   3.72226   7.03419   1.97048   0.02486   1.001E+00   0.000E+00  -1.308E-03
1067  8.48712815   0.762  -0.65434   3.72226   7.03419   1.97048   0.02483   1.001E+00   0.000E+00  -1.304E-03
1068  8.48772847   0.762  -0.65433   3.72226   7.03418   1.97048   0.02481   1.001E+00   0.000E+00  -1.300E-03
1069  8.48832796   0.762  -0.65432   3.72226   7.03418   1.97049   0.02478   1.001E+00   0.000E+00  -1.295E-03
1070  8.48892663   0.762  -0.65431   3.72226   7.03418   1.97049   0.02475   1.001E+00   0.000E+00  -1.291E-03
1071  8.48952447   0.762  -0.65430   3.72226   7.03417   1.97049   0.02473   1.001E+00   0.000E+00  -1.287E-03
1072  8.49012149   0.762  -0.65429   3.72226   7.03417   1.97049   0.02470   1.001E+00   0.000E+00  -1.282E-03
1073  8.49071769   0.762  -0.65427   3.72226   7.03416   1.97049   0.02468   1.001E+00   0.000E+00  -1.278E-03
1074  8.49131308   0.762  -0.65426   3.72226   7.03416   1.97050   0.02465   1.001E+00   0.000E+00  -1.274E-03
1075  8.49190764   0.762  -0.65425   3.72226   7.03416   1.97050   0.02462   1.001E+00   0.000E+00  -1.269E-03
1076  8.49250140   0.762  -0.65424   3.72226   7.03415   1.97050   0.02460   1.001E+00   0.000E+00  -1.265E-03
1077  8.49309434   0.762  -0.65423   3.72226   7.03415   1.97050   0.02457   1.001E+00   0.000E+00  -1.261E-03
1078  8.49368648   0.762  -0.65422   3.72226   7.03415   1.97050   0.02454   1.001E+00   0.000E+00  -1.256E-03
1079  8.49427781   0.762  -0.65421   3.72226   7.03414   1.97051   0.02452   1.001E+00   0.000E+00  -1.252E-03
1080  8.49486834   0.762  -0.65419   3.72226   7.03414   1.97051   0.02449   1.001E+00   0.000E+00  -1.248E-03
1081  8.49545806   0.762  -0.65418   3.72226   7.03414   1.97051   0.02446   1.001E+00   0.000E+00  -1.243E-03
1082  8.49604699   0.762  -0.65417   3.72226   7.03413   1.97051   0.02444   1.001E+00   0.000E+00  -1.239E-03
1083  8.49663511   0.762  -0.65416   3.72226   7.03413   1.97051   0.02441   1.001E+00   0.000E+00  -1.235E-03
1084  8.49722244   0.762  -0.65415   3.72226   7.03413   1.97052   0.02438   1.001E+00   0.000E+00  -1.230E-03
1085  8.49780898   0.762  -0.65414   3.72226   7.03412   1.97052   0.02436   1.001E+00   0.000E+00  -1.226E-03
1086  8.49839473   0.762  -0.65413   3.72226   7.03412   1.97052   0.02433   1.001E+00   0.000E+00  -1.222E-03
1087  8.49897969   0.762  -0.65412   3.72226   7.03411   1.97052   0.02431   1.001E+00   0.000E+00  -1.217E-03
1088  8.49956386   0.762  -0.65410   3.72226   7.03411   1.97052   0.02428   1.001E+00   0.000E+00  -1.213E-03
1089  8.50014725   0.762  -0.65409   3.72226   7.03411   1.97053   0.02425   1.001E+00   0.000E+00  -1.209E-03
1090  8.50072985   0.762  -0.65408   3.72226   7.03410   1.97053   0.02423   1.001E+00   0.000E+00  -1.204E-03
1091  8.50131168   0.762  -0.65407   3.72226   7.03410   1.97053   0.02420   1.001E+00   0.000E+00  -1.200E-03
1092  8.70696233   0.756  -0.64984   3.72240   7.03367   1.97248   0.01702   1.001E+00   0.000E+00  -4.972E-04
1093  8.84595900   0.750  -0.64611   3.72264   7.03396   1.97537   0.01269   1.000E+00   0.000E+00  -2.047E-04
1094  8.95109042   0.744  -0.64291   3.72286   7.03466   1.97785   0.01149   1.000E+00   0.000E+00  -2.061E-04
1095  9.03566738   0.738  -0.63959   3.72315   7.03541   1.98127   0.01077   1.000E+00   0.000E+00  -5.718E-07
1096  9.10642763   0.732  -0.63605   3.72354   7.03618   1.98591   0.00852   1.000E+00   0.000E+00   1.996E-04
1097  9.16725785   0.725  -0.63286   3.72387   7.03714   1.98996   0.00656   1.000E+00   0.000E+00   1.341E-04
1098  9.22060516   0.719  -0.62974   3.72420   7.03815   1.99407   0.00531   1.000E+00   0.000E+00   1.652E-04
1099  9.26811054   0.712  -0.62662   3.72453   7.03915   1.99839   0.00353   1.000E+00   0.000E+00   1.887E-04
1100  9.31092810   0.705  -0.62355   3.72487   7.04015   2.00269   0.00185   1.000E+00   0.000E+00   1.999E-04
1101  9.34990049   0.698  -0.62048   3.72520   7.04116   2.00708   0.00138   1.000E+00   0.000E+00   2.178E-04
1102  9.38566179   0.690  -0.61745   3.72553   7.04220   2.01149   0.00060   1.000E+00   0.000E+00   2.345E-04
1103  9.41870109   0.683  -0.61441   3.72587   7.04324   2.01596   0.00025   1.000E+00   0.000E+00   2.510E-04
1104  9.44940363   0.675  -0.61138   3.72620   7.04430   2.02050   0.00007   1.000E+00   0.000E+00   2.661E-04
1105  9.47807823   0.668  -0.60835   3.72654   7.04536   2.02511   0.00000   1.000E+00   0.000E+00   2.816E-04
1106  9.50497625   0.661  -0.60532   3.72688   7.04643   2.02962   0.00000   1.000E+00   0.000E+00   2.966E-04
1107  9.53030507   0.653  -0.60228   3.72723   7.04750   2.03417   0.00000   1.000E+00   0.000E+00   3.099E-04
1108  9.55423772   0.646  -0.59925   3.72757   7.04859   2.03877   0.00000   1.000E+00   0.000E+00   3.220E-04
1109  9.57692011   0.639  -0.59621   3.72792   7.04967   2.04341   0.00000   1.000E+00   0.000E+00   3.345E-04
1110  9.59847641   0.631  -0.59318   3.72826   7.05078   2.04809   0.00000   1.000E+00   0.000E+00   3.473E-04
1111  9.61901317   0.624  -0.59012   3.72861   7.05187   2.05280   0.00000   1.000E+00   0.000E+00   3.590E-04
1112  9.63862248   0.616  -0.58708   3.72895   7.05298   2.05754   0.00000   1.000E+00   0.000E+00   3.706E-04
1113  9.65738451   0.609  -0.58402   3.72930   7.05409   2.06232   0.00000   1.000E+00   0.000E+00   3.824E-04
1114  9.67536945   0.601  -0.58096   3.72964   7.05521   2.06713   0.00000   1.000E+00   0.000E+00   3.931E-04
1115  9.69263913   0.594  -0.57788   3.72999   7.05638   2.07271   0.00000   1.000E+00   0.000E+00   4.001E-04
1116  9.70924826   0.586  -0.57479   3.73034   7.05761   2.07846   0.00000   1.000E+00   0.000E+00   4.097E-04
1117  9.72524552   0.579  -0.57167   3.73068   7.05888   2.08422   0.00000   1.000E+00   0.000E+00   4.202E-04
1118  9.74067440   0.571  -0.56852   3.73103   7.06018   2.08999   0.00000   1.000E+00   0.000E+00   4.298E-04
1119  9.75557390   0.564  -0.56536   3.73137   7.06150   2.09577   0.00000   1.000E+00   0.000E+00   4.384E-04
1120  9.76997914   0.556  -0.56216   3.73172   7.06285   2.10158   0.00000   1.000E+00   0.000E+00   4.509E-04
1121  9.78392187   0.548  -0.55895   3.73206   7.06421   2.10740   0.00000   1.000E+00   0.000E+00   4.608E-04
1122  9.79743087   0.541  -0.55570   3.73241   7.06558   2.11322   0.00000   1.000E+00   0.000E+00   4.711E-04
1123  9.81053231   0.533  -0.55243   3.73275   7.06698   2.11907   0.00000   9.998E-01   0.000E+00   4.827E-04
1124  9.82325007   0.526  -0.54913   3.73310   7.06838   2.12494   0.00000   9.990E-01   0.000E+00   4.958E-04
1125  9.83560597   0.518  -0.54580   3.73345   7.06980   2.13084   0.00000   9.990E-01   0.000E+00   5.070E-04
1126  9.84762004   0.511  -0.54243   3.73380   7.07122   2.13677   0.00000   9.990E-01   0.000E+00   5.202E-04
1127  9.85931069   0.503  -0.53906   3.73414   7.07265   2.14270   0.00000   9.990E-01   0.000E+00   5.320E-04
1128  9.87069487   0.496  -0.53564   3.73449   7.07411   2.14868   0.00000   9.990E-01   0.000E+00   5.439E-04
1129  9.88178825   0.488  -0.53218   3.73484   7.07556   2.15470   0.00000   9.990E-01   0.000E+00   5.582E-04
1130  9.89260530   0.481  -0.52870   3.73519   7.07703   2.16075   0.00000   9.990E-01   0.000E+00   5.710E-04
1131  9.90315947   0.473  -0.52519   3.73554   7.07849   2.16683   0.00000   9.990E-01   0.000E+00   5.823E-04
1132  9.91346323   0.466  -0.52165   3.73589   7.07997   2.17295   0.00000   9.990E-01   0.000E+00   5.971E-04
1133  9.92352818   0.458  -0.51808   3.73625   7.08147   2.17908   0.00000   9.990E-01   0.000E+00   6.101E-04
1134  9.93336514   0.451  -0.51448   3.73661   7.08296   2.18524   0.00000   9.990E-01   0.000E+00   6.239E-04
1135  9.94298422   0.443  -0.51084   3.73697   7.08446   2.19145   0.00000   9.990E-01   0.000E+00   6.375E-04
1136  9.95239486   0.436  -0.50716   3.73733   7.08598   2.19769   0.00000   9.990E-01   0.000E+00   6.516E-04
1137  9.96160590   0.428  -0.50347   3.73769   7.08750   2.20398   0.00000   9.990E-01   0.000E+00   6.655E-04
1138  9.97062563   0.421  -0.49973   3.73805   7.08903   2.21031   0.00000   9.990E-01   0.000E+00   6.792E-04
1139  9.97946184   0.414  -0.49596   3.73843   7.09057   2.21670   0.00000   9.990E-01   0.000E+00   6.961E-04
1140  9.98812184   0.406  -0.49215   3.73880   7.09212   2.22313   0.00000   9.990E-01   0.000E+00   7.128E-04
1141  9.99661253   0.399  -0.48831   3.73917   7.09369   2.22986   0.00000   9.990E-01   0.000E+00   7.259E-04
1142 10.00494040   0.391  -0.48444   3.73955   7.09531   2.23765   0.00000   9.990E-01   0.000E+00   7.354E-04
1143 10.01311158   0.384  -0.48053   3.73993   7.09699   2.24545   0.00000   9.990E-01   0.000E+00   7.489E-04
1144 10.02113185   0.376  -0.47658   3.74031   7.09872   2.25334   0.00000   9.990E-01   0.000E+00   7.730E-04
1145 10.02900670   0.368  -0.47258   3.74070   7.10048   2.26126   0.00000   9.990E-01   0.000E+00   7.852E-04
1146 10.03674129   0.361  -0.46855   3.74108   7.10228   2.26921   0.00000   9.990E-01   0.000E+00   7.967E-04
1147 10.04434053   0.353  -0.46447   3.74147   7.10412   2.27722   0.00000   9.990E-01   0.000E+00   8.139E-04
1148 10.05180910   0.346  -0.46034   3.74185   7.10598   2.28529   0.00000   9.990E-01   0.000E+00   8.331E-04
1149 10.05915139   0.338  -0.45618   3.74225   7.10787   2.29341   0.00000   9.990E-01   0.000E+00   8.441E-04
1150 10.06637161   0.330  -0.45195   3.74265   7.10979   2.30159   0.00000   9.990E-01   0.000E+00   8.645E-04
1151 10.07347376   0.323  -0.44769   3.74304   7.11175   2.30979   0.00000   9.990E-01   0.000E+00   8.823E-04
1152 10.08046162   0.315  -0.44337   3.74344   7.11372   2.31802   0.00000   9.990E-01   0.000E+00   9.001E-04
1153 10.08733883   0.308  -0.43901   3.74384   7.11572   2.32630   0.00000   9.990E-01   0.000E+00   9.133E-04
1154 10.09410884   0.300  -0.43460   3.74424   7.11775   2.33465   0.00000   9.990E-01   0.000E+00   9.283E-04
1155 10.10077492   0.293  -0.43013   3.74465   7.11980   2.34305   0.00000   9.990E-01   0.000E+00   9.503E-04
1156 10.10734024   0.285  -0.42560   3.74505   7.12187   2.35149   0.00000   9.990E-01   0.000E+00   9.662E-04
1157 10.11380778   0.278  -0.42103   3.74546   7.12396   2.35998   0.00000   9.990E-01   0.000E+00   9.826E-04
1158 10.12018041   0.270  -0.41641   3.74587   7.12608   2.36852   0.00000   9.990E-01   0.000E+00   9.994E-04
1159 10.12646089   0.263  -0.41172   3.74627   7.12823   2.37712   0.00000   9.990E-01   0.000E+00   1.022E-03
1160 10.13265184   0.256  -0.40698   3.74668   7.13040   2.38579   0.00000   9.990E-01   0.000E+00   1.036E-03
1161 10.13875577   0.249  -0.40217   3.74709   7.13258   2.39450   0.00000   9.990E-01   0.000E+00   1.060E-03
1162 10.14477510   0.242  -0.39731   3.74751   7.13480   2.40327   0.00000   9.990E-01   0.000E+00   1.074E-03
1163 10.15071214   0.235  -0.39239   3.74792   7.13702   2.41210   0.00000   9.990E-01   0.000E+00   1.090E-03
1164 10.15656911   0.228  -0.38740   3.74834   7.13927   2.42101   0.00000   9.990E-01   0.000E+00   1.113E-03
1165 10.16234815   0.221  -0.38236   3.74875   7.14155   2.43002   0.00000   9.990E-01   0.000E+00   1.128E-03
1166 10.16805129   0.214  -0.37725   3.74917   7.14384   2.43911   0.00000   9.990E-01   0.000E+00   1.143E-03
1167 10.17368051   0.207  -0.37207   3.74959   7.14615   2.44830   0.00000   9.990E-01   0.000E+00   1.169E-03
1168 10.17923770   0.200  -0.36681   3.75001   7.14850   2.45768   0.00000   9.990E-01   0.000E+00   1.195E-03
1169 10.18472467   0.194  -0.36149   3.75043   7.15087   2.46867   0.00000   9.990E-01   0.000E+00   1.212E-03
1170 10.19014319   0.187  -0.35610   3.75085   7.15334   2.48002   0.00000   9.990E-01   0.000E+00   1.229E-03
1171 10.19549493   0.181  -0.35063   3.75127   7.15593   2.49145   0.00000   9.990E-01   0.000E+00   1.246E-03
1172 10.20078153   0.174  -0.34506   3.75169   7.15859   2.50308   0.00000   9.990E-01   0.000E+00   1.280E-03
1173 10.20600454   0.168  -0.33940   3.75212   7.16128   2.51487   0.00000   9.990E-01   0.000E+00   1.295E-03
1174 10.21116549   0.161  -0.33366   3.75253   7.16406   2.52678   0.00000   9.990E-01   0.000E+00   1.321E-03
1175 10.21626583   0.155  -0.32781   3.75296   7.16687   2.53889   0.00000   9.990E-01   0.000E+00   1.341E-03
1176 10.22130696   0.149  -0.32185   3.75339   7.16971   2.55117   0.00000   9.990E-01   0.000E+00   1.380E-03
1177 10.22629025   0.143  -0.31578   3.75382   7.17259   2.56364   0.00000   9.990E-01   0.000E+00   1.409E-03
1178 10.23121701   0.137  -0.30959   3.75425   7.17551   2.57635   0.00000   9.980E-01   0.000E+00   1.440E-03
1179 10.23608850   0.131  -0.30328   3.75468   7.17846   2.58925   0.00000   9.980E-01   0.000E+00   1.480E-03
1180 10.24090596   0.125  -0.29684   3.75510   7.18143   2.60232   0.00000   9.980E-01   0.000E+00   1.513E-03
1181 10.24567056   0.119  -0.29025   3.75554   7.18440   2.61566   0.00000   9.980E-01   0.000E+00   1.542E-03
1182 10.25038346   0.113  -0.28354   3.75598   7.18739   2.62930   0.00000   9.980E-01   0.000E+00   1.579E-03
1183 10.25504576   0.108  -0.27665   3.75642   7.19041   2.64323   0.00000   9.980E-01   0.000E+00   1.623E-03
1184 10.25965854   0.103  -0.26961   3.75688   7.19344   2.65745   0.00000   9.980E-01   0.000E+00   1.657E-03
1185 10.26422284   0.097  -0.26239   3.75733   7.19649   2.67201   0.00000   9.980E-01   0.000E+00   1.696E-03
1186 10.26873967   0.092  -0.25499   3.75778   7.19958   2.68693   0.00000   9.980E-01   0.000E+00   1.750E-03
1187 10.27321001   0.088  -0.24740   3.75824   7.20268   2.70221   0.00000   9.980E-01   0.000E+00   1.779E-03
1188 10.27763480   0.083  -0.23961   3.75871   7.20582   2.71793   0.00000   9.980E-01   0.000E+00   1.830E-03
1189 10.28201497   0.078  -0.23160   3.75918   7.20902   2.73409   0.00000   9.980E-01   0.000E+00   1.887E-03
1190 10.28635139   0.074  -0.22337   3.75965   7.21227   2.75064   0.00000   9.980E-01   0.000E+00   1.938E-03
1191 10.29064496   0.070  -0.21492   3.76012   7.21558   2.76770   0.00000   9.980E-01   0.000E+00   1.970E-03
1192 10.29233080   0.068  -0.21150   3.76031   7.21691   2.77460   0.00000   9.980E-01   0.000E+00   2.007E-03
1193 10.29401012   0.067  -0.20805   3.76050   7.21826   2.78158   0.00000   9.980E-01   0.000E+00   2.024E-03
1194 10.29568297   0.065  -0.20456   3.76068   7.21962   2.78860   0.00000   9.980E-01   0.000E+00   2.041E-03
1195 10.29734941   0.064  -0.20102   3.76087   7.22099   2.79572   0.00000   9.980E-01   0.000E+00   2.068E-03
1196 10.29900947   0.062  -0.19745   3.76105   7.22238   2.80293   0.00000   9.980E-01   0.000E+00   2.087E-03
1197 10.30066321   0.061  -0.19383   3.76124   7.22378   2.81023   0.00000   9.970E-01   0.000E+00   2.105E-03
1198 10.30231068   0.059  -0.19016   3.76143   7.22521   2.81763   0.00000   9.970E-01   0.000E+00   2.129E-03
1199 10.30395193   0.058  -0.18645   3.76161   7.22665   2.82514   0.00000   9.970E-01   0.000E+00   2.161E-03
1200 10.30558699   0.056  -0.18271   3.76180   7.22811   2.83270   0.00000   9.970E-01   1.786E-06   2.170E-03
1201 10.30721592   0.055  -0.17891   3.76199   7.22959   2.84037   0.00000   9.970E-01   1.000E-03   2.199E-03
1202 10.30883877   0.054  -0.17505   3.76218   7.23109   2.84814   0.00000   9.970E-01   1.000E-03   2.226E-03
1203 10.31045557   0.052  -0.17115   3.76236   7.23261   2.85603   0.00000   9.970E-01   1.000E-03   2.247E-03
1204 10.31206638   0.051  -0.16721   3.76254   7.23416   2.86402   0.00000   9.970E-01   1.000E-03   2.267E-03
1205 10.31367123   0.050  -0.16320   3.76273   7.23573   2.87212   0.00000   9.970E-01   1.000E-03   2.287E-03
1206 10.31527018   0.048  -0.15915   3.76291   7.23733   2.88030   0.00000   9.970E-01   1.000E-03   2.324E-03
1207 10.31686326   0.047  -0.15504   3.76310   7.23895   2.88860   0.00000   9.970E-01   1.000E-03   2.340E-03
1208 10.31845051   0.046  -0.15088   3.76327   7.24060   2.89703   0.00000   9.970E-01   1.000E-03   2.366E-03
1209 10.32003199   0.045  -0.14666   3.76345   7.24228   2.90560   0.00000   9.970E-01   1.000E-03   2.399E-03
1210 10.32160773   0.043  -0.14239   3.76362   7.24400   2.91424   0.00000   9.970E-01   1.000E-03   2.420E-03
1211 10.32317777   0.042  -0.13805   3.76380   7.24575   2.92294   0.00000   9.960E-01   1.000E-03   2.442E-03
1212 10.32474216   0.041  -0.13364   3.76398   7.24753   2.93176   0.00000   9.960E-01   1.000E-03   2.481E-03
1213 10.32630093   0.040  -0.12917   3.76415   7.24934   2.94073   0.00000   9.960E-01   1.000E-03   2.510E-03
1214 10.32785413   0.039  -0.12464   3.76432   7.25119   2.94981   0.00000   9.960E-01   1.000E-03   2.527E-03
1215 10.32940179   0.038  -0.12004   3.76449   7.25308   2.95906   0.00000   9.960E-01   2.000E-03   2.590E-03
1216 10.33094396   0.037  -0.11538   3.76465   7.25501   2.96838   0.00000   9.960E-01   2.000E-03   2.600E-03
1217 10.33248067   0.036  -0.11064   3.76482   7.25698   2.97785   0.00000   9.960E-01   2.000E-03   2.626E-03
1218 10.33401196   0.034  -0.10584   3.76498   7.25900   2.98751   0.00000   9.950E-01   2.000E-03   2.670E-03
1219 10.33553787   0.033  -0.10097   3.76514   7.26106   2.99728   0.00000   9.950E-01   2.000E-03   2.682E-03
1220 10.33705844   0.032  -0.09600   3.76530   7.26318   3.00718   0.00000   9.950E-01   2.000E-03   2.731E-03
1221 10.33857371   0.031  -0.09097   3.76545   7.26536   3.01722   0.00000   9.950E-01   3.000E-03   2.760E-03
1222 10.34008370   0.030  -0.08586   3.76560   7.26760   3.02741   0.00000   9.940E-01   3.000E-03   2.802E-03
1223 10.34158847   0.029  -0.08069   3.76574   7.26987   3.03780   0.00000   9.940E-01   3.000E-03   2.820E-03
1224 10.34308803   0.028  -0.07547   3.76588   7.27217   3.04817   0.00000   9.940E-01   4.000E-03   2.766E-03
1225 10.34458244   0.027  -0.07016   3.76602   7.27459   3.05872   0.00000   9.930E-01   4.000E-03   2.800E-03
1226 10.34607172   0.026  -0.06476   3.76614   7.27707   3.06949   0.00000   9.930E-01   4.000E-03   2.794E-03
1227 10.34755592   0.025  -0.05924   3.76627   7.27967   3.08041   0.00000   9.920E-01   5.000E-03   2.860E-03
1228 10.34903506   0.024  -0.05368   3.76639   7.28234   3.09138   0.00000   9.919E-01   5.112E-03   2.839E-03
1229 10.35050917   0.023  -0.04803   3.76651   7.28510   3.10248   0.00000   9.910E-01   6.000E-03   2.848E-03
1230 10.35197830   0.022  -0.04229   3.76662   7.28798   3.11376   0.00000   9.900E-01   7.000E-03   2.854E-03
1231 10.35344248   0.021  -0.03647   3.76672   7.29098   3.12511   0.00000   9.893E-01   8.000E-03   2.850E-03
1232 10.35490174   0.020  -0.03054   3.76682   7.29412   3.13650   0.00000   9.884E-01   9.000E-03   2.886E-03
1233 10.35635611   0.019  -0.02456   3.76692   7.29738   3.14799   0.00000   9.874E-01   1.000E-02   2.860E-03
1234 10.35780563   0.018  -0.01846   3.76701   7.30081   3.15961   0.00000   9.860E-01   1.100E-02   2.900E-03
1235 10.35925033   0.017  -0.01230   3.76709   7.30438   3.17099   0.00000   9.843E-01   1.270E-02   2.887E-03
1236 10.36069023   0.016  -0.00606   3.76717   7.30810   3.18242   0.00000   9.830E-01   1.400E-02   2.888E-03
1237 10.36212538   0.015   0.00029   3.76724   7.31199   3.19392   0.00000   9.810E-01   1.600E-02   2.900E-03
1238 10.36355580   0.014   0.00671   3.76730   7.31604   3.20526   0.00000   9.788E-01   1.817E-02   2.912E-03
1239 10.36498152   0.012   0.01321   3.76735   7.32020   3.21667   0.00000   9.766E-01   2.100E-02   2.878E-03
1240 10.36640258   0.011   0.01979   3.76740   7.32449   3.22817   0.00000   9.733E-01   2.369E-02   2.906E-03
1241 10.36781901   0.010   0.02645   3.76744   7.32881   3.23972   0.00000   9.700E-01   2.700E-02   2.890E-03
1242 10.36806646   0.010   0.02763   3.76745   7.32957   3.24176   0.00000   9.694E-01   2.759E-02   2.902E-03
1243 10.36831376   0.009   0.02882   3.76745   7.33032   3.24381   0.00000   9.688E-01   2.817E-02   2.912E-03
1244 10.36856093   0.009   0.03000   3.76746   7.33107   3.24590   0.00000   9.682E-01   2.876E-02   2.918E-03
1245 10.36880796   0.009   0.03119   3.76746   7.33182   3.24798   0.00000   9.676E-01   2.936E-02   2.916E-03
1246 10.36905484   0.009   0.03238   3.76746   7.33256   3.25006   0.00000   9.671E-01   2.995E-02   2.911E-03
1247 10.36930159   0.008   0.03357   3.76747   7.33330   3.25217   0.00000   9.665E-01   3.054E-02   2.915E-03
1248 10.36954819   0.008   0.03476   3.76747   7.33404   3.25428   0.00000   9.659E-01   3.114E-02   2.920E-03
1249 10.36979466   0.008   0.03596   3.76748   7.33477   3.25642   0.00000   9.653E-01   3.173E-02   2.920E-03
1250 10.37004098   0.008   0.03716   3.76748   7.33550   3.25857   0.00000   9.647E-01   3.233E-02   2.920E-03
1251 10.37028717   0.008   0.03836   3.76748   7.33622   3.26074   0.00000   9.641E-01   3.293E-02   2.920E-03
1252 10.37053321   0.007   0.03957   3.76748   7.33692   3.26296   0.00000   9.635E-01   3.353E-02   2.909E-03
1253 10.37077912   0.007   0.04078   3.76748   7.33763   3.26518   0.00000   9.629E-01   3.414E-02   2.916E-03
1254 10.37102489   0.007   0.04201   3.76749   7.33834   3.26742   0.00000   9.622E-01   3.476E-02   2.992E-03
1255 10.37127051   0.007   0.04324   3.76749   7.33906   3.26967   0.00000   9.612E-01   3.541E-02   3.073E-03
1256 10.37151600   0.006   0.04448   3.76750   7.33978   3.27194   0.00000   9.599E-01   3.607E-02   3.159E-03
1257 10.37176136   0.006   0.04573   3.76751   7.34049   3.27423   0.00000   9.592E-01   3.675E-02   3.248E-03
1258 10.37200657   0.006   0.04698   3.76751   7.34118   3.27655   0.00000   9.585E-01   3.792E-02   3.335E-03
1259 10.37225164   0.006   0.04823   3.76752   7.34187   3.27890   0.00000   9.578E-01   3.918E-02   3.422E-03
1260 10.37249658   0.006   0.04948   3.76752   7.34254   3.28128   0.00000   9.571E-01   3.993E-02   3.512E-03
1261 10.37274138   0.005   0.05075   3.76752   7.34318   3.28373   0.00000   9.563E-01   4.000E-02   3.583E-03
1262 10.37298603   0.005   0.05202   3.76752   7.34380   3.28622   0.00000   9.555E-01   4.050E-02   3.655E-03
1263 10.37323056   0.005   0.05329   3.76752   7.34441   3.28872   0.00000   9.547E-01   4.131E-02   3.738E-03
1264 10.37347494   0.005   0.05457   3.76752   7.34500   3.29126   0.00000   9.538E-01   4.215E-02   3.835E-03
1265 10.37371919   0.005   0.05586   3.76752   7.34559   3.29384   0.00000   9.530E-01   4.302E-02   3.922E-03
1266 10.37396330   0.004   0.05715   3.76752   7.34615   3.29648   0.00000   9.521E-01   4.390E-02   4.019E-03
1267 10.37420727   0.004   0.05845   3.76752   7.34669   3.29915   0.00000   9.512E-01   4.482E-02   4.112E-03
1268 10.37445111   0.004   0.05975   3.76752   7.34722   3.30187   0.00000   9.502E-01   4.575E-02   4.198E-03
1269 10.37469481   0.004   0.06106   3.76751   7.34772   3.30466   0.00000   9.493E-01   4.671E-02   4.270E-03
1270 10.37493837   0.004   0.06238   3.76751   7.34819   3.30750   0.00000   9.483E-01   4.700E-02   4.339E-03
1271 10.37518179   0.003   0.06371   3.76750   7.34866   3.31035   0.00000   9.473E-01   4.771E-02   4.424E-03
1272 10.37542508   0.003   0.06504   3.76750   7.34911   3.31323   0.00000   9.463E-01   4.874E-02   4.516E-03
1273 10.37566824   0.003   0.06638   3.76749   7.34955   3.31614   0.00000   9.460E-01   4.979E-02   4.612E-03
1274 10.37591125   0.003   0.06772   3.76748   7.34996   3.31911   0.00000   9.451E-01   5.000E-02   4.709E-03
1275 10.37615413   0.003   0.06907   3.76747   7.35037   3.32211   0.00000   9.440E-01   5.098E-02   4.808E-03
1276 10.37639688   0.003   0.07043   3.76747   7.35075   3.32516   0.00000   9.429E-01   5.211E-02   4.894E-03
1277 10.37663949   0.002   0.07179   3.76745   7.35112   3.32829   0.00000   9.420E-01   5.300E-02   4.943E-03
1278 10.37688196   0.002   0.07316   3.76744   7.35147   3.33145   0.00000   9.416E-01   5.344E-02   5.015E-03
1279 10.37712430   0.002   0.07454   3.76742   7.35182   3.33463   0.00000   9.404E-01   5.465E-02   5.099E-03
1280 10.37736651   0.002   0.07592   3.76741   7.35216   3.33788   0.00000   9.391E-01   5.500E-02   5.137E-03
1281 10.37760857   0.002   0.07733   3.76739   7.35246   3.34117   0.00000   9.389E-01   5.612E-02   5.130E-03
1282 10.37785051   0.002   0.07873   3.76737   7.35276   3.34448   0.00000   9.376E-01   5.700E-02   5.228E-03
1283 10.37809231   0.002   0.08015   3.76735   7.35305   3.34783   0.00000   9.370E-01   5.770E-02   5.319E-03
1284 10.37833397   0.002   0.08156   3.76734   7.35334   3.35121   0.00000   9.360E-01   5.900E-02   5.412E-03
1285 10.37857550   0.001   0.08299   3.76732   7.35362   3.35462   0.00000   9.350E-01   5.937E-02   5.495E-03
1286 10.37881690   0.001   0.08442   3.76730   7.35388   3.35808   0.00000   9.343E-01   6.000E-02   5.542E-03
1287 10.37905816   0.001   0.08586   3.76728   7.35414   3.36155   0.00000   9.330E-01   6.115E-02   5.629E-03
1288 10.37929929   0.001   0.08731   3.76726   7.35439   3.36507   0.00000   9.324E-01   6.200E-02   5.714E-03
1289 10.37954028   0.001   0.08875   3.76724   7.35464   3.36862   0.00000   9.310E-01   6.302E-02   5.791E-03
1290 10.37978114   0.001   0.09022   3.76722   7.35488   3.37221   0.00000   9.305E-01   6.400E-02   5.880E-03
1291 10.38002187   0.001   0.09168   3.76719   7.35512   3.37583   0.00000   9.290E-01   6.500E-02   5.960E-03
1292 10.38050451   0.001   0.09461   3.76712   7.35552   3.38336   0.00000   9.280E-01   6.684E-02   5.306E-03
1293 10.38098661   0.001   0.09757   3.76706   7.35583   3.39106   0.00000   9.270E-01   6.837E-02   4.739E-03
1294 10.38146817   0.001   0.10056   3.76699   7.35614   3.39884   0.00000   9.260E-01   6.961E-02   4.234E-03
1295 10.38194921   0.001   0.10357   3.76691   7.35643   3.40671   0.00000   9.244E-01   7.158E-02   3.760E-03
1296 10.38242971   0.000   0.10660   3.76682   7.35669   3.41472   0.00000   9.230E-01   7.332E-02   3.323E-03
1297 10.38290968   0.000   0.10967   3.76673   7.35695   3.42285   0.00000   9.221E-01   7.488E-02   3.008E-03
1298 10.38338912   0.000   0.11280   3.76663   7.35736   3.43097   0.00000   9.196E-01   7.743E-02   3.083E-03
1299 10.38386803   0.000   0.11598   3.76655   7.35781   3.43920   0.00000   9.170E-01   7.901E-02   3.100E-03
1300 10.38434641   0.000   0.11917   3.76645   7.35839   3.44776   0.00000   9.154E-01   8.159E-02   3.100E-03
1301 10.38482427   0.000   0.12241   3.76636   7.35887   3.45653   0.00000   9.128E-01   8.420E-02   3.088E-03
1302 10.38530160   0.000   0.12568   3.76626   7.35943   3.46542   0.00000   9.103E-01   8.665E-02   3.145E-03
1303 10.38577841   0.000   0.12900   3.76615   7.35986   3.47454   0.00000   9.081E-01   8.847E-02   3.130E-03
1304 10.38625469   0.000   0.13237   3.76602   7.36025   3.48385   0.00000   9.059E-01   9.114E-02   3.101E-03
1305 10.38673046   0.000   0.13578   3.76589   7.36065   3.49332   0.00000   9.033E-01   9.367E-02   3.077E-03
1306 10.38720570   0.000   0.13923   3.76576   7.36142   3.50327   0.00000   9.009E-01   9.609E-02   3.050E-03
1307 10.38768042   0.000   0.14274   3.76561   7.36183   3.51321   0.00000   8.977E-01   9.856E-02   3.114E-03
1308 10.38815463   0.000   0.14630   3.76547   7.36227   3.52332   0.00000   8.950E-01   1.020E-01   3.139E-03
1309 10.38862831   0.000   0.14988   3.76531   7.36282   3.53361   0.00000   8.923E-01   1.047E-01   3.095E-03
1310 10.38910148   0.000   0.15354   3.76514   7.36335   3.54408   0.00000   8.894E-01   1.076E-01   3.149E-03
1311 10.38957414   0.000   0.15725   3.76496   7.36391   3.55483   0.00000   8.860E-01   1.110E-01   3.150E-03
1312 10.39004628   0.000   0.16101   3.76478   7.36448   3.56584   0.00000   8.833E-01   1.137E-01   3.137E-03
1313 10.39051791   0.000   0.16484   3.76457   7.36507   3.57699   0.00000   8.795E-01   1.175E-01   3.185E-03
1314 10.39098903   0.000   0.16873   3.76436   7.36571   3.58835   0.00000   8.758E-01   1.204E-01   3.214E-03
1315 10.39145964   0.000   0.17267   3.76415   7.36647   3.59995   0.00000   8.727E-01   1.243E-01   3.231E-03
1316 10.39192974   0.000   0.17667   3.76392   7.36719   3.61184   0.00000   8.688E-01   1.282E-01   3.262E-03
1317 10.39239933   0.000   0.18074   3.76367   7.36795   3.62397   0.00000   8.647E-01   1.323E-01   3.286E-03
1318 10.39286841   0.000   0.18489   3.76340   7.36879   3.63646   0.00000   8.606E-01   1.364E-01   3.247E-03
1319 10.39333699   0.000   0.18911   3.76313   7.36962   3.64930   0.00000   8.564E-01   1.406E-01   3.313E-03
1320 10.39380506   0.000   0.19341   3.76284   7.37050   3.66235   0.00000   8.522E-01   1.448E-01   3.328E-03
1321 10.39427263   0.000   0.19780   3.76252   7.37143   3.67581   0.00000   8.468E-01   1.492E-01   3.362E-03
1322 10.39473969   0.000   0.20226   3.76220   7.37242   3.68959   0.00000   8.424E-01   1.546E-01   3.404E-03
1323 10.39520625   0.000   0.20682   3.76185   7.37345   3.70373   0.00000   8.369E-01   1.592E-01   3.439E-03
1324 10.39567232   0.000   0.21147   3.76147   7.37455   3.71834   0.00000   8.319E-01   1.647E-01   3.440E-03
1325 10.39613788   0.000   0.21623   3.76108   7.37567   3.73337   0.00000   8.259E-01   1.704E-01   3.449E-03
1326 10.39660294   0.000   0.22108   3.76067   7.37687   3.74874   0.00000   8.198E-01   1.764E-01   3.478E-03
1327 10.39706751   0.000   0.22603   3.76021   7.37818   3.76457   0.00000   8.139E-01   1.827E-01   3.499E-03
1328 10.39753158   0.000   0.23110   3.75974   7.37951   3.78079   0.00000   8.067E-01   1.893E-01   3.532E-03
1329 10.39799516   0.000   0.23628   3.75924   7.38089   3.79757   0.00000   8.000E-01   1.970E-01   3.567E-03
1330 10.39845824   0.000   0.24156   3.75872   7.38236   3.81473   0.00000   7.922E-01   2.048E-01   3.597E-03
1331 10.39892082   0.000   0.24694   3.75816   7.38387   3.83238   0.00000   7.832E-01   2.129E-01   3.580E-03
1332 10.39938292   0.000   0.25249   3.75758   7.38546   3.85048   0.00000   7.749E-01   2.218E-01   3.630E-03
1333 10.39984452   0.000   0.25814   3.75696   7.38715   3.86905   0.00000   7.655E-01   2.310E-01   3.645E-03
1334 10.40030564   0.000   0.26395   3.75630   7.38894   3.88818   0.00000   7.555E-01   2.405E-01   3.696E-03
1335 10.40076626   0.000   0.26992   3.75560   7.39083   3.90784   0.00000   7.450E-01   2.513E-01   3.720E-03
1336 10.40122640   0.000   0.27603   3.75485   7.39284   3.92801   0.00000   7.339E-01   2.625E-01   3.770E-03
1337 10.40168605   0.000   0.28231   3.75408   7.39500   3.94880   0.00000   7.221E-01   2.739E-01   3.790E-03
1338 10.40214521   0.000   0.28880   3.75325   7.39728   3.97009   0.00000   7.102E-01   2.868E-01   3.843E-03
1339 10.40260389   0.000   0.29546   3.75238   7.39971   3.99192   0.00000   6.970E-01   2.990E-01   3.930E-03
1340 10.40306209   0.000   0.30231   3.75146   7.40223   4.01411   0.00000   6.824E-01   3.136E-01   3.944E-03
1341 10.40351980   1.000   0.31008   3.75029   7.40654   4.04036   0.00000   6.720E-01   3.230E-01   4.490E-03
