 # M = 1.40 Mo, Y = 0.2300, Z = 2.00000E-04, alpha = 1.20, X_D = 4.0E-05
 # Solar Mixture: Asplund et al. (2005)         
 # ------------------------------------------------------------------------------------------------------------
 # NMD   LOG AGE    Xc      LOG L     LOG TE    LOG Tc   LOG RHOc    M-CC       L-PP       L-CNO       L-GRA
 #        (yr)              (Lo)        (K)       (K)   (gr/cm^3)    (Mo)        (L)         (L)         (L)
 # ------------------------------------------------------------------------------------------------------------
   1  5.06742888   0.770   1.45674   3.69781   6.16422  -1.46396   0.00000   9.400E-01   0.000E+00   5.990E-02
   2  5.10803319   0.770   1.45279   3.69796   6.16645  -1.45726   0.00000   9.407E-01   0.000E+00   5.926E-02
   3  5.14516367   0.770   1.44884   3.69811   6.16869  -1.45056   0.00000   9.414E-01   0.000E+00   5.862E-02
   4  5.17936816   0.770   1.44488   3.69826   6.17092  -1.44387   0.00000   9.421E-01   0.000E+00   5.797E-02
   5  5.21107432   0.770   1.44093   3.69841   6.17316  -1.43717   0.00000   9.429E-01   0.000E+00   5.733E-02
   6  5.24062239   0.770   1.43695   3.69856   6.17541  -1.43042   0.00000   9.423E-01   0.000E+00   5.786E-02
   7  5.26828754   0.770   1.43296   3.69871   6.17766  -1.42367   0.00000   9.414E-01   0.000E+00   5.869E-02
   8  5.29429541   0.770   1.42896   3.69886   6.17991  -1.41691   0.00000   9.406E-01   0.000E+00   5.951E-02
   9  5.31883341   0.770   1.42497   3.69901   6.18216  -1.41015   0.00000   9.397E-01   0.000E+00   6.034E-02
  10  5.34205882   0.770   1.42091   3.69916   6.18446  -1.40326   0.00000   9.386E-01   0.000E+00   6.145E-02
  11  5.36410497   0.770   1.41654   3.69933   6.18692  -1.39588   0.00000   9.363E-01   0.000E+00   6.365E-02
  12  5.38508585   0.770   1.41218   3.69949   6.18938  -1.38849   0.00000   9.341E-01   0.000E+00   6.586E-02
  13  5.40509968   0.770   1.40782   3.69965   6.19184  -1.38110   0.00000   9.319E-01   0.000E+00   6.807E-02
  14  5.42423168   0.770   1.40346   3.69982   6.19430  -1.37372   0.00000   9.297E-01   0.000E+00   7.027E-02
  15  5.44255631   0.770   1.39862   3.70000   6.19702  -1.36554   0.00000   9.262E-01   0.000E+00   7.379E-02
  16  5.46013894   0.770   1.39356   3.70018   6.19988  -1.35696   0.00000   9.221E-01   0.000E+00   7.794E-02
  17  5.47703735   0.770   1.38849   3.70037   6.20273  -1.34839   0.00000   9.180E-01   0.000E+00   8.210E-02
  18  5.49330279   0.770   1.38342   3.70056   6.20559  -1.33982   0.00000   9.139E-01   0.000E+00   8.626E-02
  19  5.50898098   0.770   1.37777   3.70077   6.20877  -1.33028   0.00000   9.079E-01   0.000E+00   9.223E-02
  20  5.52411284   0.770   1.37162   3.70100   6.21223  -1.31989   0.00000   9.003E-01   0.000E+00   9.977E-02
  21  5.53873518   0.770   1.36547   3.70122   6.21569  -1.30950   0.00000   8.927E-01   0.000E+00   1.073E-01
  22  5.55288119   0.770   1.35931   3.70145   6.21915  -1.29912   0.00000   8.852E-01   0.000E+00   1.149E-01
  23  5.56658092   0.770   1.35168   3.70172   6.22344  -1.28626   0.00000   8.719E-01   0.000E+00   1.281E-01
  24  5.57986169   0.770   1.34403   3.70200   6.22774  -1.27335   0.00000   8.586E-01   0.000E+00   1.414E-01
  25  5.59274835   0.770   1.33627   3.70228   6.23210  -1.26027   0.00000   8.447E-01   0.000E+00   1.553E-01
  26  5.60526362   0.770   1.32667   3.70262   6.23748  -1.24412   0.00000   8.209E-01   0.000E+00   1.791E-01
  27  5.61742831   0.770   1.31706   3.70296   6.24287  -1.22796   0.00000   7.971E-01   0.000E+00   2.029E-01
  28  5.62926153   0.770   1.30585   3.70335   6.24916  -1.20910   0.00000   7.632E-01   0.000E+00   2.368E-01
  29  5.64078087   0.770   1.29394   3.70377   6.25583  -1.18908   0.00000   7.248E-01   0.000E+00   2.752E-01
  30  5.65200254   0.770   1.27999   3.70425   6.26364  -1.16563   0.00000   6.710E-01   0.000E+00   3.290E-01
  31  5.66294154   0.770   1.26484   3.70477   6.27212  -1.14020   0.00000   6.072E-01   0.000E+00   3.928E-01
  32  5.67361177   0.770   1.24785   3.70534   6.28159  -1.11177   0.00000   5.279E-01   0.000E+00   4.721E-01
  33  5.68402611   0.770   1.22885   3.70598   6.29220  -1.07993   0.00000   4.335E-01   0.000E+00   5.665E-01
  34  5.69419656   0.770   1.20820   3.70665   6.30372  -1.04543   0.00000   3.328E-01   0.000E+00   6.672E-01
  35  5.70413427   0.770   1.18636   3.70734   6.31591  -1.00894   0.00000   2.363E-01   0.000E+00   7.637E-01
  36  5.71384966   0.770   1.16408   3.70804   6.32828  -0.97185   0.00000   1.556E-01   0.000E+00   8.444E-01
  37  5.72335246   0.770   1.14197   3.70871   6.34059  -0.93505   0.00000   9.494E-02   0.000E+00   9.051E-01
  38  5.73265178   0.770   1.12051   3.70935   6.35246  -0.89948   0.00000   5.443E-02   0.000E+00   9.456E-01
  39  5.74175614   0.770   1.10003   3.70994   6.36232  -0.86384   0.00000   2.809E-02   0.000E+00   9.711E-01
  40  5.75067355   0.770   1.08063   3.71049   6.37140  -0.82910   0.00000   8.910E-03   0.000E+00   9.910E-01
  41  5.75941153   0.770   1.06243   3.71100   6.37990  -0.79625   0.00000   3.000E-03   0.000E+00   9.970E-01
  42  5.76839735   0.770   1.04457   3.71149   6.38824  -0.76378   0.00000   1.000E-03   0.000E+00   9.990E-01
  43  5.77720102   0.770   1.02777   3.71194   6.39608  -0.73304   0.00000   9.763E-04   0.000E+00   9.990E-01
  44  5.78582976   0.770   1.01201   3.71236   6.40346  -0.70390   0.00000   4.576E-05   0.000E+00   1.000E+00
  45  5.79429040   0.770   0.99716   3.71275   6.41041  -0.67623   0.00000   0.000E+00   0.000E+00   1.000E+00
  46  5.80258936   0.770   0.98314   3.71312   6.41701  -0.64980   0.00000   0.000E+00   0.000E+00   1.000E+00
  47  5.81073270   0.770   0.96982   3.71346   6.42328  -0.62446   0.00000   0.000E+00   0.000E+00   1.000E+00
  48  5.81872616   0.770   0.95712   3.71379   6.42928  -0.60008   0.00000   0.000E+00   0.000E+00   1.000E+00
  49  5.82657514   0.770   0.94497   3.71410   6.43505  -0.57654   0.00000   0.000E+00   0.000E+00   1.000E+00
  50  5.83428479   0.770   0.93360   3.71440   6.44047  -0.55417   0.00000   0.000E+00   0.000E+00   1.000E+00
  51  5.84185996   0.770   0.92266   3.71468   6.44572  -0.53245   0.00000   0.000E+00   0.000E+00   1.000E+00
  52  5.84930526   0.770   0.91209   3.71495   6.45081  -0.51128   0.00000   0.000E+00   0.000E+00   1.000E+00
  53  5.85662507   0.770   0.90214   3.71521   6.45564  -0.49107   0.00000   0.000E+00   0.000E+00   1.000E+00
  54  5.86382355   0.770   0.89254   3.71546   6.46033  -0.47137   0.00000   0.000E+00   0.000E+00   1.000E+00
  55  5.87090466   0.770   0.88326   3.71570   6.46490  -0.45214   0.00000   0.000E+00   0.000E+00   1.000E+00
  56  5.87787216   0.770   0.87451   3.71594   6.46926  -0.43369   0.00000   0.000E+00   0.000E+00   1.000E+00
  57  5.88472964   0.770   0.86592   3.71616   6.47355  -0.41547   0.00000   0.000E+00   0.000E+00   1.000E+00
  58  5.89148052   0.770   0.85785   3.71639   6.47765  -0.39803   0.00000   0.000E+00   0.000E+00   1.000E+00
  59  5.89812807   0.770   0.84993   3.71661   6.48169  -0.38081   0.00000   0.000E+00   0.000E+00   1.000E+00
  60  5.90467540   0.770   0.84243   3.71683   6.48557  -0.36417   0.00000   0.000E+00   0.000E+00   1.000E+00
  61  5.91112549   0.770   0.83511   3.71704   6.48939  -0.34780   0.00000   0.000E+00   0.000E+00   1.000E+00
  62  5.91748118   0.770   0.82812   3.71725   6.49309  -0.33192   0.00000   0.000E+00   0.000E+00   1.000E+00
  63  5.92374520   0.770   0.82130   3.71746   6.49673  -0.31628   0.00000   0.000E+00   0.000E+00   1.000E+00
  64  5.92992016   0.770   0.81482   3.71766   6.50026  -0.30113   0.00000   0.000E+00   0.000E+00   1.000E+00
  65  5.93600855   0.770   0.80844   3.71786   6.50375  -0.28611   0.00000   0.000E+00   0.000E+00   1.000E+00
  66  5.94201276   0.770   0.80242   3.71806   6.50712  -0.27163   0.00000   0.000E+00   0.000E+00   1.000E+00
  67  5.94793509   0.770   0.79640   3.71826   6.51048  -0.25715   0.00000   0.000E+00   0.000E+00   1.000E+00
  68  5.95377775   0.770   0.79086   3.71846   6.51369  -0.24328   0.00000   0.000E+00   0.000E+00   1.000E+00
  69  5.95954284   0.770   0.78531   3.71866   6.51690  -0.22943   0.00000   0.000E+00   0.000E+00   1.000E+00
  70  5.96523241   0.770   0.78004   3.71885   6.52003  -0.21597   0.00000   0.000E+00   0.000E+00   1.000E+00
  71  5.97084841   0.770   0.77490   3.71904   6.52310  -0.20271   0.00000   0.000E+00   0.000E+00   1.000E+00
  72  5.97639271   0.770   0.76985   3.71924   6.52615  -0.18958   0.00000   0.000E+00   0.000E+00   1.000E+00
  73  5.98186712   0.770   0.76513   3.71944   6.52910  -0.17688   0.00000   0.000E+00   0.000E+00   1.000E+00
  74  5.98727338   0.770   0.76042   3.71964   6.53205  -0.16417   0.00000   0.000E+00   0.000E+00   1.000E+00
  75  5.99261317   0.770   0.75596   3.71983   6.53493  -0.15183   0.00000   0.000E+00   0.000E+00   1.000E+00
  76  5.99788810   0.770   0.75163   3.72003   6.53776  -0.13965   0.00000   0.000E+00   0.000E+00   1.000E+00
  77  6.00309973   0.770   0.74731   3.72023   6.54059  -0.12749   0.00000   0.000E+00   0.000E+00   1.000E+00
  78  6.00824956   0.770   0.74334   3.72042   6.54332  -0.11579   0.00000   0.000E+00   0.000E+00   1.000E+00
  79  6.01333904   0.770   0.73937   3.72062   6.54605  -0.10409   0.00000   0.000E+00   0.000E+00   1.000E+00
  80  6.01836956   0.770   0.73550   3.72082   6.54875  -0.09251   0.00000   0.000E+00   0.000E+00   1.000E+00
  81  6.02334249   0.770   0.73189   3.72102   6.55138  -0.08126   0.00000   0.000E+00   0.000E+00   1.000E+00
  82  6.02825911   0.770   0.72828   3.72122   6.55402  -0.07002   0.00000   0.000E+00   0.000E+00   1.000E+00
  83  6.03312070   0.770   0.72481   3.72142   6.55661  -0.05894   0.00000   0.000E+00   0.000E+00   1.000E+00
  84  6.03792846   0.770   0.72154   3.72163   6.55916  -0.04812   0.00000   0.000E+00   0.000E+00   1.000E+00
  85  6.04268359   0.770   0.71826   3.72183   6.56171  -0.03730   0.00000   0.000E+00   0.000E+00   1.000E+00
  86  6.04738721   0.770   0.71513   3.72204   6.56422  -0.02664   0.00000   0.000E+00   0.000E+00   1.000E+00
  87  6.05204044   0.770   0.71218   3.72225   6.56668  -0.01622   0.00000   0.000E+00   0.000E+00   1.000E+00
  88  6.05664434   0.770   0.70924   3.72245   6.56915  -0.00580   0.00000   0.000E+00   0.000E+00   1.000E+00
  89  6.06119994   0.770   0.70639   3.72267   6.57159   0.00451   0.00000   0.000E+00   0.000E+00   1.000E+00
  90  6.06570825   0.770   0.70376   3.72288   6.57398   0.01455   0.00000   0.000E+00   0.000E+00   1.000E+00
  91  6.07017025   0.770   0.70113   3.72309   6.57637   0.02460   0.00000   0.000E+00   0.000E+00   1.000E+00
  92  6.07458686   0.770   0.69853   3.72331   6.57876   0.03461   0.00000   0.000E+00   0.000E+00   1.000E+00
  93  6.07895902   0.770   0.69622   3.72353   6.58109   0.04431   0.00000   0.000E+00   0.000E+00   1.000E+00
  94  6.08328759   0.770   0.69391   3.72375   6.58342   0.05401   0.00000   0.000E+00   0.000E+00   1.000E+00
  95  6.08757345   0.770   0.69159   3.72397   6.58574   0.06371   0.00000   0.000E+00   0.000E+00   1.000E+00
  96  6.09181743   0.770   0.68951   3.72421   6.58802   0.07317   0.00000   0.000E+00   0.000E+00   1.000E+00
  97  6.09602033   0.770   0.68750   3.72444   6.59029   0.08255   0.00000   0.000E+00   0.000E+00   1.000E+00
  98  6.10018295   0.770   0.68550   3.72468   6.59255   0.09193   0.00000   0.000E+00   0.000E+00   1.000E+00
  99  6.10430605   0.770   0.68358   3.72491   6.59480   0.10122   0.00000   0.000E+00   0.000E+00   1.000E+00
 100  6.10839038   0.770   0.68187   3.72515   6.59701   0.11030   0.00000   0.000E+00   0.000E+00   1.000E+00
 101  6.11243665   0.770   0.68015   3.72539   6.59922   0.11937   0.00000   0.000E+00   0.000E+00   1.000E+00
 102  6.11644557   0.770   0.67844   3.72563   6.60143   0.12845   0.00000   0.000E+00   0.000E+00   1.000E+00
 103  6.12041782   0.770   0.67694   3.72588   6.60361   0.13732   0.00000   0.000E+00   0.000E+00   1.000E+00
 104  6.12435407   0.770   0.67552   3.72613   6.60578   0.14612   0.00000   0.000E+00   0.000E+00   1.000E+00
 105  6.12825497   0.770   0.67410   3.72638   6.60794   0.15492   0.00000   0.000E+00   0.000E+00   1.000E+00
 106  6.13212113   0.770   0.67271   3.72664   6.61010   0.16369   0.00000   0.000E+00   0.000E+00   1.000E+00
 107  6.13595319   0.770   0.67157   3.72690   6.61222   0.17223   0.00000   0.000E+00   0.000E+00   1.000E+00
 108  6.13975172   0.770   0.67043   3.72716   6.61434   0.18076   0.00000   0.000E+00   0.000E+00   1.000E+00
 109  6.14351732   0.770   0.66929   3.72743   6.61646   0.18929   0.00000   0.000E+00   0.000E+00   1.000E+00
 110  6.14725055   0.770   0.66826   3.72769   6.61856   0.19773   0.00000   0.000E+00   0.000E+00   1.000E+00
 111  6.15095197   0.770   0.66739   3.72797   6.62065   0.20601   0.00000   0.000E+00   0.000E+00   1.000E+00
 112  6.15462210   0.770   0.66652   3.72824   6.62273   0.21430   0.00000   0.000E+00   0.000E+00   1.000E+00
 113  6.15826148   0.770   0.66565   3.72852   6.62481   0.22259   0.00000   0.000E+00   0.000E+00   1.000E+00
 114  6.16187061   0.770   0.66496   3.72880   6.62687   0.23072   0.00000   0.000E+00   0.000E+00   1.000E+00
 115  6.16545000   0.770   0.66434   3.72907   6.62891   0.23879   0.00000   0.000E+00   0.000E+00   1.000E+00
 116  6.16900012   0.770   0.66372   3.72935   6.63096   0.24686   0.00000   0.000E+00   0.000E+00   1.000E+00
 117  6.17252146   0.770   0.66310   3.72963   6.63301   0.25493   0.00000   0.000E+00   0.000E+00   1.000E+00
 118  6.17601448   0.770   0.66273   3.72992   6.63503   0.26279   0.00000   0.000E+00   0.000E+00   1.000E+00
 119  6.17947963   0.770   0.66236   3.73021   6.63704   0.27065   0.00000   0.000E+00   0.000E+00   1.000E+00
 120  6.18291735   0.770   0.66199   3.73050   6.63906   0.27852   0.00000   0.000E+00   0.000E+00   1.000E+00
 121  6.18632807   0.770   0.66169   3.73079   6.64107   0.28633   0.00000   0.000E+00   0.000E+00   1.000E+00
 122  6.18971222   0.770   0.66154   3.73108   6.64307   0.29401   0.00000   0.000E+00   0.000E+00   1.000E+00
 123  6.19307019   0.770   0.66140   3.73138   6.64506   0.30169   0.00000   0.000E+00   0.000E+00   1.000E+00
 124  6.19640241   0.770   0.66126   3.73168   6.64705   0.30938   0.00000   0.000E+00   0.000E+00   1.000E+00
 125  6.19970925   0.770   0.66124   3.73197   6.64903   0.31695   0.00000   0.000E+00   0.000E+00   1.000E+00
 126  6.20299110   0.770   0.66130   3.73227   6.65100   0.32447   0.00000   0.000E+00   0.000E+00   1.000E+00
 127  6.20624834   0.770   0.66136   3.73256   6.65297   0.33198   0.00000   0.000E+00   0.000E+00   1.000E+00
 128  6.20948133   0.770   0.66143   3.73286   6.65494   0.33949   0.00000   0.000E+00   0.000E+00   1.000E+00
 129  6.21269043   0.770   0.66170   3.73316   6.65690   0.34687   0.00000   0.000E+00   0.000E+00   1.000E+00
 130  6.21587599   0.770   0.66199   3.73346   6.65885   0.35423   0.00000   0.000E+00   0.000E+00   1.000E+00
 131  6.21903835   0.770   0.66227   3.73376   6.66081   0.36160   0.00000   0.000E+00   0.000E+00   1.000E+00
 132  6.22217786   0.770   0.66262   3.73406   6.66275   0.36892   0.00000   0.000E+00   0.000E+00   1.000E+00
 133  6.22529483   0.770   0.66312   3.73436   6.66469   0.37615   0.00000   0.000E+00   0.000E+00   1.000E+00
 134  6.22838959   0.770   0.66361   3.73467   6.66663   0.38337   0.00000   0.000E+00   0.000E+00   1.000E+00
 135  6.23146245   0.770   0.66410   3.73497   6.66857   0.39060   0.00000   0.000E+00   0.000E+00   1.000E+00
 136  6.23451372   0.770   0.66476   3.73528   6.67050   0.39773   0.00000   0.000E+00   0.000E+00   1.000E+00
 137  6.23754371   0.770   0.66547   3.73559   6.67242   0.40483   0.00000   0.000E+00   0.000E+00   1.000E+00
 138  6.24055270   0.770   0.66618   3.73590   6.67435   0.41194   0.00000   0.000E+00   0.000E+00   1.000E+00
 139  6.24354099   0.770   0.66695   3.73622   6.67628   0.41901   0.00000   0.000E+00   0.000E+00   1.000E+00
 140  6.24650886   0.770   0.66788   3.73653   6.67819   0.42600   0.00000   0.000E+00   0.000E+00   1.000E+00
 141  6.24945658   0.770   0.66880   3.73685   6.68011   0.43300   0.00000   0.000E+00   0.000E+00   1.000E+00
 142  6.25238443   0.770   0.66973   3.73717   6.68203   0.43999   0.00000   0.000E+00   0.000E+00   1.000E+00
 143  6.25529267   0.770   0.67084   3.73749   6.68394   0.44689   0.00000   0.000E+00   0.000E+00   1.000E+00
 144  6.25818157   0.770   0.67199   3.73782   6.68584   0.45378   0.00000   0.000E+00   0.000E+00   1.000E+00
 145  6.26105138   0.770   0.67313   3.73814   6.68775   0.46067   0.00000   0.000E+00   0.000E+00   1.000E+00
 146  6.26390235   0.770   0.67439   3.73847   6.68966   0.46751   0.00000   0.000E+00   0.000E+00   1.000E+00
 147  6.26673472   0.770   0.67576   3.73881   6.69156   0.47431   0.00000   0.000E+00   0.000E+00   1.000E+00
 148  6.26954874   0.770   0.67713   3.73914   6.69347   0.48111   0.00000   0.000E+00   0.000E+00   1.000E+00
 149  6.27234465   0.770   0.67855   3.73948   6.69537   0.48789   0.00000   0.000E+00   0.000E+00   1.000E+00
 150  6.27512267   0.770   0.68015   3.73983   6.69728   0.49461   0.00000   0.000E+00   0.000E+00   1.000E+00
 151  6.27788304   0.770   0.68176   3.74018   6.69918   0.50133   0.00000   0.000E+00   0.000E+00   1.000E+00
 152  6.28062597   0.770   0.68337   3.74053   6.70109   0.50804   0.00000   0.000E+00   0.000E+00   1.000E+00
 153  6.28335168   0.770   0.68520   3.74090   6.70299   0.51470   0.00000   0.000E+00   0.000E+00   1.000E+00
 154  6.28606040   0.770   0.68703   3.74126   6.70489   0.52135   0.00000   0.000E+00   0.000E+00   1.000E+00
 155  6.28875233   0.770   0.68886   3.74162   6.70680   0.52801   0.00000   0.000E+00   0.000E+00   1.000E+00
 156  6.29142767   0.770   0.69087   3.74200   6.70870   0.53460   0.00000   0.000E+00   0.000E+00   1.000E+00
 157  6.29408663   0.770   0.69289   3.74237   6.71061   0.54119   0.00000   0.000E+00   0.000E+00   1.000E+00
 158  6.29672941   0.770   0.69491   3.74275   6.71251   0.54777   0.00000   0.000E+00   0.000E+00   1.000E+00
 159  6.29935621   0.770   0.69716   3.74314   6.71442   0.55431   0.00000   0.000E+00   0.000E+00   1.000E+00
 160  6.30196722   0.770   0.69942   3.74353   6.71633   0.56085   0.00000   0.000E+00   0.000E+00   1.000E+00
 161  6.30456262   0.770   0.70170   3.74393   6.71824   0.56739   0.00000   0.000E+00   0.000E+00   1.000E+00
 162  6.30714260   0.770   0.70414   3.74433   6.72016   0.57387   0.00000   0.000E+00   0.000E+00   1.000E+00
 163  6.30970735   0.770   0.70658   3.74474   6.72207   0.58036   0.00000   0.000E+00   0.000E+00   1.000E+00
 164  6.31225704   0.770   0.70906   3.74514   6.72398   0.58683   0.00000   0.000E+00   0.000E+00   1.000E+00
 165  6.31479185   0.770   0.71169   3.74556   6.72590   0.59327   0.00000   0.000E+00   0.000E+00   1.000E+00
 166  6.31731194   0.770   0.71431   3.74598   6.72782   0.59972   0.00000   0.000E+00   0.000E+00   1.000E+00
 167  6.31981750   0.770   0.71702   3.74640   6.72974   0.60614   0.00000   0.000E+00   0.000E+00   1.000E+00
 168  6.32230869   0.770   0.71981   3.74683   6.73166   0.61254   0.00000   0.000E+00   0.000E+00   1.000E+00
 169  6.32478567   0.770   0.72260   3.74726   6.73359   0.61895   0.00000   0.000E+00   0.000E+00   1.000E+00
 170  6.32724860   0.770   0.72552   3.74770   6.73552   0.62531   0.00000   0.000E+00   0.000E+00   1.000E+00
 171  6.32969765   0.770   0.72844   3.74813   6.73745   0.63168   0.00000   0.000E+00   0.000E+00   1.000E+00
 172  6.33213296   0.770   0.73142   3.74857   6.73938   0.63803   0.00000   0.000E+00   0.000E+00   1.000E+00
 173  6.33455469   0.770   0.73446   3.74902   6.74132   0.64437   0.00000   0.000E+00   0.000E+00   1.000E+00
 174  6.33696299   0.770   0.73751   3.74946   6.74325   0.65071   0.00000   0.000E+00   0.000E+00   1.000E+00
 175  6.33935801   0.770   0.74065   3.74991   6.74520   0.65703   0.00000   0.000E+00   0.000E+00   1.000E+00
 176  6.34173989   0.770   0.74379   3.75037   6.74714   0.66334   0.00000   0.000E+00   0.000E+00   1.000E+00
 177  6.34410878   0.770   0.74699   3.75082   6.74909   0.66964   0.00000   0.000E+00   0.000E+00   1.000E+00
 178  6.34646482   0.770   0.75023   3.75128   6.75104   0.67593   0.00000   0.000E+00   0.000E+00   1.000E+00
 179  6.34880815   0.770   0.75348   3.75175   6.75300   0.68221   0.00000   0.000E+00   0.000E+00   1.000E+00
 180  6.35113890   0.770   0.75677   3.75221   6.75496   0.68848   0.00000   0.000E+00   0.000E+00   1.000E+00
 181  6.35345721   0.770   0.76006   3.75268   6.75692   0.69475   0.00000   0.000E+00   0.000E+00   1.000E+00
 182  6.35576321   0.770   0.76339   3.75315   6.75889   0.70100   0.00000   0.000E+00   0.000E+00   1.000E+00
 183  6.35805703   0.770   0.76672   3.75362   6.76086   0.70725   0.00000   0.000E+00   0.000E+00   1.000E+00
 184  6.36033880   0.770   0.77006   3.75410   6.76283   0.71349   0.00000   0.000E+00   0.000E+00   1.000E+00
 185  6.36260865   0.770   0.77340   3.75458   6.76481   0.71972   0.00000   0.000E+00   0.000E+00   1.000E+00
 186  6.36486669   0.770   0.77672   3.75506   6.76679   0.72594   0.00000   0.000E+00   0.000E+00   1.000E+00
 187  6.36711305   0.770   0.78004   3.75554   6.76877   0.73216   0.00000   0.000E+00   0.000E+00   1.000E+00
 188  6.36934785   0.770   0.78331   3.75602   6.77076   0.73836   0.00000   0.000E+00   0.000E+00   1.000E+00
 189  6.37157121   0.770   0.78659   3.75650   6.77274   0.74456   0.00000   0.000E+00   0.000E+00   1.000E+00
 190  6.37378325   0.770   0.78985   3.75699   6.77474   0.75076   0.00000   0.000E+00   0.000E+00   1.000E+00
 191  6.37598408   0.770   0.79307   3.75747   6.77673   0.75694   0.00000   0.000E+00   0.000E+00   1.000E+00
 192  6.37817381   0.770   0.79622   3.75796   6.77873   0.76312   0.00000   0.000E+00   0.000E+00   1.000E+00
 193  6.38035255   0.770   0.79935   3.75845   6.78072   0.76929   0.00000   0.000E+00   0.000E+00   1.000E+00
 194  6.38252042   0.770   0.80246   3.75894   6.78273   0.77546   0.00000   0.000E+00   0.000E+00   1.000E+00
 195  6.38467753   0.770   0.80547   3.75943   6.78474   0.78161   0.00000   0.000E+00   0.000E+00   1.000E+00
 196  6.38682397   0.770   0.80847   3.75993   6.78675   0.78776   0.00000   0.000E+00   0.000E+00   1.000E+00
 197  6.38895985   0.770   0.81136   3.76042   6.78875   0.79390   0.00000   0.000E+00   0.000E+00   1.000E+00
 198  6.39108528   0.770   0.81422   3.76092   6.79076   0.80004   0.00000   0.000E+00   0.000E+00   1.000E+00
 199  6.39320036   0.770   0.81702   3.76142   6.79278   0.80616   0.00000   0.000E+00   0.000E+00   1.000E+00
 200  6.39530519   0.770   0.81976   3.76192   6.79479   0.81228   0.00000   0.000E+00   0.000E+00   1.000E+00
 201  6.39739987   0.770   0.82246   3.76242   6.79681   0.81839   0.00000   0.000E+00   0.000E+00   1.000E+00
 202  6.39948449   0.770   0.82506   3.76292   6.79882   0.82449   0.00000   0.000E+00   0.000E+00   1.000E+00
 203  6.40155916   0.770   0.82763   3.76343   6.80083   0.83059   0.00000   0.000E+00   0.000E+00   1.000E+00
 204  6.40362396   0.770   0.83014   3.76394   6.80286   0.83669   0.00000   0.000E+00   0.000E+00   1.000E+00
 205  6.40567899   0.770   0.83257   3.76445   6.80487   0.84276   0.00000   0.000E+00   0.000E+00   1.000E+00
 206  6.40772434   0.770   0.83497   3.76496   6.80689   0.84884   0.00000   0.000E+00   0.000E+00   1.000E+00
 207  6.40976010   0.770   0.83732   3.76548   6.80891   0.85490   0.00000   0.000E+00   0.000E+00   1.000E+00
 208  6.41178637   0.770   0.83962   3.76600   6.81093   0.86095   0.00000   0.000E+00   0.000E+00   1.000E+00
 209  6.41380323   0.770   0.84188   3.76653   6.81295   0.86700   0.00000   0.000E+00   0.000E+00   1.000E+00
 210  6.41581076   0.770   0.84406   3.76705   6.81497   0.87303   0.00000   0.000E+00   0.000E+00   1.000E+00
 211  6.41780906   0.770   0.84622   3.76758   6.81699   0.87906   0.00000   0.000E+00   0.000E+00   1.000E+00
 212  6.41979820   0.770   0.84835   3.76812   6.81900   0.88508   0.00000   0.000E+00   0.000E+00   1.000E+00
 213  6.42177827   0.770   0.85038   3.76865   6.82101   0.89109   0.00000   0.000E+00   0.000E+00   1.000E+00
 214  6.42374936   0.770   0.85241   3.76919   6.82303   0.89708   0.00000   0.000E+00   0.000E+00   1.000E+00
 215  6.42571154   0.770   0.85441   3.76973   6.82504   0.90307   0.00000   0.000E+00   0.000E+00   1.000E+00
 216  6.42766490   0.770   0.85635   3.77028   6.82706   0.90905   0.00000   0.000E+00   0.000E+00   1.000E+00
 217  6.42960951   0.770   0.85826   3.77084   6.82907   0.91501   0.00000   0.000E+00   0.000E+00   1.000E+00
 218  6.43154545   0.770   0.86014   3.77139   6.83108   0.92097   0.00000   0.000E+00   0.000E+00   1.000E+00
 219  6.43347280   0.770   0.86199   3.77194   6.83309   0.92691   0.00000   0.000E+00   0.000E+00   1.000E+00
 220  6.43539164   0.770   0.86381   3.77251   6.83509   0.93285   0.00000   0.000E+00   0.000E+00   1.000E+00
 221  6.43730203   0.770   0.86559   3.77307   6.83710   0.93877   0.00000   0.000E+00   0.000E+00   1.000E+00
 222  6.43920406   0.770   0.86734   3.77364   6.83910   0.94469   0.00000   0.000E+00   0.000E+00   1.000E+00
 223  6.44109779   0.770   0.86907   3.77421   6.84109   0.95059   0.00000   0.000E+00   0.000E+00   1.000E+00
 224  6.44298330   0.770   0.87077   3.77479   6.84309   0.95648   0.00000   0.000E+00   0.000E+00   1.000E+00
 225  6.44486066   0.770   0.87245   3.77536   6.84509   0.96236   0.00000   0.000E+00   0.000E+00   1.000E+00
 226  6.44672994   0.770   0.87410   3.77594   6.84708   0.96823   0.00000   0.000E+00   0.000E+00   1.000E+00
 227  6.44859121   0.770   0.87572   3.77653   6.84907   0.97409   0.00000   0.000E+00   0.000E+00   1.000E+00
 228  6.45044454   0.770   0.87732   3.77713   6.85106   0.97993   0.00000   0.000E+00   0.000E+00   1.000E+00
 229  6.45228999   0.770   0.87890   3.77771   6.85305   0.98577   0.00000   0.000E+00   0.000E+00   1.000E+00
 230  6.45412763   0.770   0.88045   3.77831   6.85502   0.99159   0.00000   0.000E+00   0.000E+00   1.000E+00
 231  6.45595753   0.770   0.88199   3.77891   6.85700   0.99741   0.00000   0.000E+00   0.000E+00   1.000E+00
 232  6.45777975   0.770   0.88350   3.77952   6.85898   1.00321   0.00000   5.403E-04   0.000E+00   9.995E-01
 233  6.45959436   0.770   0.88499   3.78012   6.86095   1.00899   0.00000   1.000E-03   0.000E+00   9.990E-01
 234  6.46140142   0.770   0.88646   3.78073   6.86292   1.01477   0.00000   1.000E-03   0.000E+00   9.990E-01
 235  6.46320099   0.770   0.88792   3.78135   6.86489   1.02053   0.00000   1.000E-03   0.000E+00   9.990E-01
 236  6.46499313   0.770   0.88936   3.78195   6.86685   1.02628   0.00000   1.000E-03   0.000E+00   9.990E-01
 237  6.46677791   0.770   0.89078   3.78258   6.86881   1.03202   0.00000   1.000E-03   0.000E+00   9.990E-01
 238  6.46855538   0.770   0.89218   3.78320   6.87077   1.03775   0.00000   1.000E-03   0.000E+00   9.990E-01
 239  6.47032561   0.770   0.89357   3.78383   6.87274   1.04350   0.00000   1.000E-03   0.000E+00   9.990E-01
 240  6.47208865   0.770   0.89495   3.78447   6.87472   1.04928   0.00000   1.000E-03   0.000E+00   9.990E-01
 241  6.47384457   0.770   0.89631   3.78511   6.87669   1.05504   0.00000   1.000E-03   0.000E+00   9.990E-01
 242  6.47559341   0.770   0.89767   3.78576   6.87866   1.06078   0.00000   1.000E-03   0.000E+00   9.990E-01
 243  6.47733524   0.770   0.89900   3.78641   6.88062   1.06652   0.00000   1.000E-03   0.000E+00   9.990E-01
 244  6.47907011   0.770   0.90033   3.78707   6.88259   1.07228   0.00000   1.000E-03   0.000E+00   9.990E-01
 245  6.48079808   0.770   0.90164   3.78775   6.88458   1.07808   0.00000   1.000E-03   0.000E+00   9.990E-01
 246  6.48251920   0.770   0.90296   3.78842   6.88657   1.08389   0.00000   1.000E-03   0.000E+00   9.990E-01
 247  6.48423353   0.770   0.90426   3.78913   6.88858   1.08977   0.00000   1.000E-03   0.000E+00   9.990E-01
 248  6.48594111   0.770   0.90556   3.78983   6.89060   1.09566   0.00000   1.000E-03   0.000E+00   9.990E-01
 249  6.48764201   0.770   0.90687   3.79054   6.89262   1.10155   0.00000   1.000E-03   0.000E+00   9.990E-01
 250  6.48933627   0.770   0.90816   3.79127   6.89466   1.10750   0.00000   1.000E-03   0.000E+00   9.990E-01
 251  6.49102395   0.770   0.90945   3.79202   6.89673   1.11351   0.00000   1.000E-03   0.000E+00   9.990E-01
 252  6.49270510   0.770   0.91073   3.79278   6.89879   1.11951   0.00000   1.000E-03   0.000E+00   9.990E-01
 253  6.49437976   0.770   0.91201   3.79353   6.90085   1.12551   0.00000   1.000E-03   0.000E+00   9.990E-01
 254  6.49604799   0.770   0.91330   3.79428   6.90292   1.13152   0.00000   1.000E-03   0.000E+00   9.990E-01
 255  6.49770984   0.770   0.91450   3.79501   6.90485   1.13715   0.00000   1.000E-03   0.000E+00   9.990E-01
 256  6.49936535   0.770   0.91567   3.79574   6.90677   1.14273   0.00000   1.000E-03   0.000E+00   9.990E-01
 257  6.50101457   0.770   0.91683   3.79648   6.90869   1.14830   0.00000   1.000E-03   0.000E+00   9.990E-01
 258  6.50265756   0.770   0.91797   3.79723   6.91060   1.15386   0.00000   1.000E-03   0.000E+00   9.990E-01
 259  6.50429435   0.770   0.91910   3.79798   6.91250   1.15942   0.00000   1.000E-03   0.000E+00   9.990E-01
 260  6.50592500   0.770   0.92022   3.79874   6.91441   1.16496   0.00000   1.000E-03   0.000E+00   9.990E-01
 261  6.50754955   0.770   0.92134   3.79950   6.91632   1.17050   0.00000   1.000E-03   0.000E+00   9.989E-01
 262  6.50916804   0.770   0.92244   3.80028   6.91821   1.17602   0.00000   1.000E-03   0.000E+00   9.984E-01
 263  6.51078053   0.770   0.92354   3.80106   6.92011   1.18154   0.00000   1.180E-03   0.000E+00   9.980E-01
 264  6.51238705   0.770   0.92462   3.80184   6.92200   1.18704   0.00000   1.731E-03   0.000E+00   9.980E-01
 265  6.51398764   0.770   0.92570   3.80263   6.92389   1.19254   0.00000   2.000E-03   0.000E+00   9.980E-01
 266  6.51558237   0.770   0.92676   3.80343   6.92578   1.19802   0.00000   2.000E-03   0.000E+00   9.980E-01
 267  6.51717125   0.770   0.92782   3.80424   6.92766   1.20350   0.00000   2.000E-03   0.000E+00   9.980E-01
 268  6.51875435   0.770   0.92888   3.80505   6.92955   1.20896   0.00000   2.000E-03   0.000E+00   9.980E-01
 269  6.52033169   0.770   0.92992   3.80588   6.93143   1.21441   0.00000   2.000E-03   0.000E+00   9.980E-01
 270  6.52190333   0.770   0.93095   3.80670   6.93330   1.21985   0.00000   2.000E-03   0.000E+00   9.980E-01
 271  6.52346930   0.770   0.93197   3.80755   6.93517   1.22528   0.00000   2.000E-03   0.000E+00   9.980E-01
 272  6.52502965   0.770   0.93299   3.80840   6.93704   1.23071   0.00000   2.000E-03   0.000E+00   9.980E-01
 273  6.52658440   0.770   0.93400   3.80927   6.93891   1.23612   0.00000   2.000E-03   0.000E+00   9.980E-01
 274  6.52813362   0.770   0.93501   3.81014   6.94077   1.24152   0.00000   2.000E-03   0.000E+00   9.980E-01
 275  6.52967732   0.770   0.93600   3.81103   6.94263   1.24691   0.00000   2.000E-03   0.000E+00   9.980E-01
 276  6.53121556   0.770   0.93699   3.81192   6.94448   1.25229   0.00000   2.000E-03   0.000E+00   9.980E-01
 277  6.53274837   0.770   0.93796   3.81284   6.94633   1.25766   0.00000   2.000E-03   0.000E+00   9.975E-01
 278  6.53427579   0.770   0.93893   3.81376   6.94818   1.26303   0.00000   2.000E-03   0.000E+00   9.970E-01
 279  6.53579785   0.770   0.93989   3.81472   6.95002   1.26837   0.00000   2.484E-03   0.000E+00   9.970E-01
 280  6.53731460   0.770   0.94085   3.81567   6.95186   1.27371   0.00000   2.971E-03   0.000E+00   9.970E-01
 281  6.53882607   0.770   0.94180   3.81666   6.95369   1.27904   0.00000   3.000E-03   0.000E+00   9.970E-01
 282  6.54033230   0.770   0.94274   3.81765   6.95552   1.28436   0.00000   3.000E-03   0.000E+00   9.970E-01
 283  6.54183332   0.770   0.94367   3.81866   6.95735   1.28966   0.00000   3.000E-03   0.000E+00   9.970E-01
 284  6.54332917   0.770   0.94459   3.81967   6.95918   1.29496   0.00000   3.000E-03   0.000E+00   9.970E-01
 285  6.54481989   0.770   0.94551   3.82070   6.96101   1.30024   0.00000   3.000E-03   0.000E+00   9.970E-01
 286  6.54630551   0.770   0.94643   3.82174   6.96283   1.30551   0.00000   3.000E-03   0.000E+00   9.970E-01
 287  6.54778606   0.770   0.94733   3.82280   6.96464   1.31077   0.00000   3.000E-03   0.000E+00   9.967E-01
 288  6.54926158   0.770   0.94823   3.82386   6.96645   1.31603   0.00000   3.000E-03   0.000E+00   9.963E-01
 289  6.55073211   0.770   0.94913   3.82492   6.96826   1.32127   0.00000   3.176E-03   0.000E+00   9.960E-01
 290  6.55219768   0.770   0.95001   3.82600   6.97006   1.32650   0.00000   3.625E-03   0.000E+00   9.960E-01
 291  6.55365831   0.770   0.95089   3.82708   6.97187   1.33172   0.00000   4.000E-03   0.000E+00   9.960E-01
 292  6.55511405   0.770   0.95176   3.82818   6.97366   1.33692   0.00000   4.000E-03   0.000E+00   9.960E-01
 293  6.55656493   0.770   0.95263   3.82927   6.97546   1.34212   0.00000   4.000E-03   0.000E+00   9.960E-01
 294  6.55801097   0.770   0.95348   3.83038   6.97725   1.34730   0.00000   4.000E-03   0.000E+00   9.960E-01
 295  6.55945222   0.770   0.95434   3.83149   6.97904   1.35248   0.00000   4.000E-03   0.000E+00   9.960E-01
 296  6.56088870   0.770   0.95518   3.83261   6.98082   1.35765   0.00000   4.000E-03   0.000E+00   9.957E-01
 297  6.56232044   0.770   0.95602   3.83373   6.98260   1.36280   0.00000   4.000E-03   0.000E+00   9.953E-01
 298  6.56374748   0.770   0.95686   3.83486   6.98437   1.36795   0.00000   4.110E-03   0.000E+00   9.950E-01
 299  6.56516985   0.770   0.95768   3.83599   6.98614   1.37307   0.00000   4.529E-03   0.000E+00   9.950E-01
 300  6.56658757   0.770   0.95851   3.83713   6.98792   1.37820   0.00000   4.949E-03   0.000E+00   9.950E-01
 301  6.56800068   0.770   0.95932   3.83828   6.98968   1.38330   0.00000   5.000E-03   0.000E+00   9.950E-01
 302  6.56940921   0.770   0.96013   3.83943   6.99144   1.38840   0.00000   5.000E-03   0.000E+00   9.950E-01
 303  6.57081318   0.770   0.96093   3.84059   6.99320   1.39349   0.00000   5.000E-03   0.000E+00   9.948E-01
 304  6.57221263   0.770   0.96173   3.84174   6.99495   1.39856   0.00000   5.000E-03   0.000E+00   9.944E-01
 305  6.57360758   0.770   0.96253   3.84290   6.99670   1.40364   0.00000   5.000E-03   0.000E+00   9.940E-01
 306  6.57499807   0.770   0.96331   3.84405   6.99844   1.40868   0.00000   5.393E-03   0.000E+00   9.940E-01
 307  6.57638412   0.770   0.96409   3.84521   7.00019   1.41372   0.00000   5.792E-03   0.000E+00   9.940E-01
 308  6.57776576   0.770   0.96487   3.84636   7.00193   1.41875   0.00000   6.000E-03   0.000E+00   9.938E-01
 309  6.57914302   0.770   0.96564   3.84751   7.00366   1.42376   0.00000   6.000E-03   0.000E+00   9.934E-01
 310  6.58051592   0.770   0.96641   3.84867   7.00540   1.42877   0.00000   6.000E-03   0.000E+00   9.930E-01
 311  6.58188450   0.770   0.96716   3.84981   7.00712   1.43376   0.00000   6.352E-03   0.000E+00   9.930E-01
 312  6.58324878   0.770   0.96791   3.85096   7.00885   1.43874   0.00000   6.736E-03   0.000E+00   9.930E-01
 313  6.58460879   0.770   0.96866   3.85211   7.01057   1.44372   0.00000   7.000E-03   0.000E+00   9.930E-01
 314  6.58596455   0.770   0.96940   3.85325   7.01229   1.44867   0.00000   7.000E-03   0.000E+00   9.930E-01
 315  6.58731609   0.770   0.97014   3.85440   7.01400   1.45362   0.00000   7.000E-03   0.000E+00   9.930E-01
 316  6.58866344   0.770   0.97086   3.85553   7.01571   1.45855   0.00000   7.242E-03   0.000E+00   9.928E-01
 317  6.59000662   0.770   0.97159   3.85667   7.01742   1.46347   0.00000   7.611E-03   0.000E+00   9.924E-01
 318  6.59134566   0.770   0.97231   3.85781   7.01912   1.46839   0.00000   7.979E-03   0.000E+00   9.920E-01
 319  6.59268059   0.770   0.97302   3.85894   7.02082   1.47328   0.00000   8.342E-03   0.000E+00   9.917E-01
 320  6.59401142   0.770   0.97373   3.86007   7.02251   1.47817   0.00000   8.704E-03   0.000E+00   9.913E-01
 321  6.59533819   0.770   0.97444   3.86119   7.02421   1.48305   0.00000   9.000E-03   0.000E+00   9.910E-01
 322  6.59666092   0.770   0.97513   3.86231   7.02590   1.48791   0.00000   9.000E-03   0.000E+00   9.910E-01
 323  6.59797963   0.770   0.97583   3.86344   7.02758   1.49276   0.00000   9.000E-03   0.000E+00   9.910E-01
 324  6.59929435   0.770   0.97652   3.86455   7.02927   1.49761   0.00000   9.126E-03   0.000E+00   9.909E-01
 325  6.60060510   0.770   0.97720   3.86567   7.03094   1.50243   0.00000   9.473E-03   0.000E+00   9.905E-01
 326  6.60191191   0.770   0.97788   3.86678   7.03261   1.50726   0.00000   9.820E-03   0.000E+00   9.902E-01
 327  6.60321479   0.770   0.97855   3.86789   7.03428   1.51207   0.00000   1.016E-02   0.000E+00   9.898E-01
 328  6.60451378   0.770   0.97921   3.86900   7.03594   1.51686   0.00000   1.050E-02   0.000E+00   9.895E-01
 329  6.60580890   0.770   0.97987   3.87011   7.03761   1.52164   0.00000   1.084E-02   0.000E+00   9.892E-01
 330  6.60710016   0.770   0.98053   3.87121   7.03927   1.52641   0.00000   1.118E-02   0.000E+00   9.888E-01
 331  6.60838760   0.770   0.98118   3.87231   7.04092   1.53117   0.00000   1.151E-02   0.000E+00   9.885E-01
 332  6.60967123   0.770   0.98183   3.87340   7.04258   1.53592   0.00000   1.184E-02   0.000E+00   9.882E-01
 333  6.61095108   0.770   0.98247   3.87449   7.04423   1.54066   0.00000   1.217E-02   0.000E+00   9.878E-01
 334  6.61222717   0.770   0.98311   3.87558   7.04587   1.54537   0.00000   1.250E-02   0.000E+00   9.875E-01
 335  6.61349952   0.770   0.98374   3.87667   7.04751   1.55009   0.00000   1.282E-02   0.000E+00   9.872E-01
 336  6.61476815   0.770   0.98437   3.87775   7.04915   1.55478   0.00000   1.314E-02   0.000E+00   9.869E-01
 337  6.61603309   0.770   0.98499   3.87883   7.05078   1.55946   0.00000   1.346E-02   0.000E+00   9.865E-01
 338  6.61729436   0.770   0.98560   3.87991   7.05241   1.56413   0.00000   1.378E-02   0.000E+00   9.862E-01
 339  6.61855197   0.770   0.98622   3.88098   7.05404   1.56879   0.00000   1.409E-02   0.000E+00   9.859E-01
 340  6.61980595   0.770   0.98682   3.88205   7.05566   1.57343   0.00000   1.440E-02   0.000E+00   9.856E-01
 341  6.62105632   0.770   0.98742   3.88312   7.05728   1.57806   0.00000   1.471E-02   0.000E+00   9.853E-01
 342  6.62230310   0.770   0.98802   3.88418   7.05890   1.58269   0.00000   1.504E-02   0.000E+00   9.850E-01
 343  6.62354631   0.770   0.98861   3.88524   7.06050   1.58729   0.00000   1.564E-02   0.000E+00   9.844E-01
 344  6.62478598   0.770   0.98919   3.88630   7.06211   1.59188   0.00000   1.624E-02   0.000E+00   9.838E-01
 345  6.62602211   0.770   0.98978   3.88736   7.06372   1.59648   0.00000   1.684E-02   0.000E+00   9.832E-01
 346  6.62725474   0.770   0.99035   3.88840   7.06532   1.60104   0.00000   1.722E-02   0.000E+00   9.828E-01
 347  6.62848388   0.770   0.99092   3.88945   7.06692   1.60559   0.00000   1.751E-02   0.000E+00   9.825E-01
 348  6.62970955   0.770   0.99150   3.89050   7.06851   1.61014   0.00000   1.780E-02   0.000E+00   9.822E-01
 349  6.63093177   0.770   0.99206   3.89154   7.07010   1.61467   0.00000   1.819E-02   0.000E+00   9.818E-01
 350  6.63215056   0.770   0.99261   3.89258   7.07169   1.61918   0.00000   1.876E-02   0.000E+00   9.812E-01
 351  6.63336594   0.770   0.99317   3.89362   7.07327   1.62369   0.00000   1.933E-02   0.000E+00   9.807E-01
 352  6.63457792   0.770   0.99372   3.89465   7.07485   1.62820   0.00000   1.990E-02   0.000E+00   9.801E-01
 353  6.63578654   0.770   0.99426   3.89568   7.07643   1.63267   0.00000   2.045E-02   0.000E+00   9.795E-01
 354  6.63699180   0.770   0.99479   3.89670   7.07800   1.63713   0.00000   2.100E-02   0.000E+00   9.790E-01
 355  6.63819372   0.770   0.99532   3.89773   7.07957   1.64159   0.00000   2.156E-02   0.000E+00   9.784E-01
 356  6.63939233   0.770   0.99585   3.89875   7.08114   1.64604   0.00000   2.211E-02   0.000E+00   9.779E-01
 357  6.64058764   0.770   0.99637   3.89976   7.08270   1.65044   0.00000   2.264E-02   0.000E+00   9.774E-01
 358  6.64177967   0.770   0.99688   3.90077   7.08426   1.65485   0.00000   2.318E-02   0.000E+00   9.768E-01
 359  6.64296843   0.770   0.99740   3.90178   7.08582   1.65926   0.00000   2.371E-02   0.000E+00   9.763E-01
 360  6.64415395   0.770   0.99791   3.90279   7.08737   1.66364   0.00000   2.436E-02   0.000E+00   9.756E-01
 361  6.64533624   0.770   0.99841   3.90379   7.08892   1.66799   0.00000   2.513E-02   0.000E+00   9.749E-01
 362  6.64651532   0.770   0.99891   3.90479   7.09046   1.67234   0.00000   2.590E-02   0.000E+00   9.741E-01
 363  6.64769121   0.770   0.99940   3.90580   7.09201   1.67669   0.00000   2.668E-02   0.000E+00   9.733E-01
 364  6.64886393   0.770   0.99989   3.90679   7.09355   1.68101   0.00000   2.744E-02   0.000E+00   9.726E-01
 365  6.65003349   0.770   1.00037   3.90777   7.09508   1.68530   0.00000   2.818E-02   0.000E+00   9.718E-01
 366  6.65119990   0.770   1.00084   3.90876   7.09662   1.68960   0.00000   2.893E-02   0.000E+00   9.711E-01
 367  6.65236319   0.770   1.00132   3.90975   7.09815   1.69390   0.00000   2.967E-02   0.000E+00   9.703E-01
 368  6.65352338   0.770   1.00178   3.91072   7.09968   1.69816   0.00000   3.040E-02   0.000E+00   9.696E-01
 369  6.65468047   0.770   1.00224   3.91170   7.10120   1.70239   0.00000   3.111E-02   0.000E+00   9.689E-01
 370  6.65583449   0.770   1.00269   3.91267   7.10273   1.70662   0.00000   3.183E-02   0.000E+00   9.682E-01
 371  6.65698545   0.770   1.00314   3.91365   7.10425   1.71085   0.00000   3.254E-02   0.000E+00   9.675E-01
 372  6.65813336   0.770   1.00359   3.91462   7.10577   1.71506   0.00000   3.333E-02   0.000E+00   9.667E-01
 373  6.65927825   0.770   1.00402   3.91557   7.10728   1.71923   0.00000   3.424E-02   0.000E+00   9.658E-01
 374  6.66042013   0.770   1.00445   3.91653   7.10879   1.72339   0.00000   3.514E-02   0.000E+00   9.649E-01
 375  6.66155902   0.770   1.00488   3.91749   7.11030   1.72756   0.00000   3.605E-02   0.000E+00   9.639E-01
 376  6.66269493   0.770   1.00531   3.91845   7.11182   1.73173   0.00000   3.696E-02   0.000E+00   9.630E-01
 377  6.66382787   0.770   1.00572   3.91939   7.11332   1.73581   0.00000   3.803E-02   0.000E+00   9.620E-01
 378  6.66495787   0.770   1.00612   3.92034   7.11483   1.73990   0.00000   3.911E-02   0.000E+00   9.609E-01
 379  6.66608493   0.770   1.00653   3.92128   7.11633   1.74398   0.00000   4.018E-02   0.000E+00   9.598E-01
 380  6.66720908   0.770   1.00693   3.92223   7.11784   1.74806   0.00000   4.126E-02   0.000E+00   9.587E-01
 381  6.66833032   0.770   1.00732   3.92317   7.11934   1.75212   0.00000   4.237E-02   0.000E+00   9.576E-01
 382  6.66944868   0.770   1.00770   3.92409   7.12085   1.75611   0.00000   4.359E-02   0.000E+00   9.564E-01
 383  6.67056417   0.770   1.00807   3.92502   7.12235   1.76010   0.00000   4.480E-02   0.000E+00   9.552E-01
 384  6.67167679   0.770   1.00844   3.92594   7.12385   1.76410   0.00000   4.601E-02   0.000E+00   9.540E-01
 385  6.67278658   0.770   1.00881   3.92687   7.12536   1.76809   0.00000   4.722E-02   0.000E+00   9.528E-01
 386  6.67389353   0.770   1.00917   3.92778   7.12686   1.77204   0.00000   4.853E-02   0.000E+00   9.515E-01
 387  6.67499767   0.770   1.00951   3.92869   7.12837   1.77590   0.00000   5.003E-02   0.000E+00   9.500E-01
 388  6.67609901   0.770   1.00985   3.92960   7.12988   1.77977   0.00000   5.152E-02   0.000E+00   9.485E-01
 389  6.67719757   0.770   1.01018   3.93051   7.13138   1.78364   0.00000   5.301E-02   0.000E+00   9.470E-01
 390  6.67829335   0.770   1.01052   3.93141   7.13289   1.78750   0.00000   5.451E-02   0.000E+00   9.455E-01
 391  6.67938638   0.770   1.01086   3.93232   7.13440   1.79137   0.00000   5.600E-02   0.000E+00   9.440E-01
 392  6.68373353   0.770   1.01203   3.93587   7.14050   1.80620   0.00000   6.276E-02   0.000E+00   9.366E-01
 393  6.68803760   0.770   1.01306   3.93935   7.14666   1.82056   0.00000   7.109E-02   0.000E+00   9.282E-01
 394  6.69229943   0.770   1.01397   3.94278   7.15286   1.83449   0.00000   8.087E-02   0.000E+00   9.191E-01
 395  6.69651985   0.770   1.01458   3.94606   7.15909   1.84736   0.00000   9.266E-02   5.332E-04   9.068E-01
 396  6.70069965   0.770   1.01507   3.94927   7.16530   1.85983   0.00000   1.054E-01   1.000E-03   8.936E-01
 397  6.70483960   0.770   1.01524   3.95234   7.17143   1.87137   0.00000   1.207E-01   1.000E-03   8.783E-01
 398  6.70894046   0.770   1.01517   3.95529   7.17740   1.88233   0.00000   1.371E-01   1.000E-03   8.616E-01
 399  6.71300296   0.770   1.01487   3.95815   7.18323   1.89274   0.00000   1.547E-01   1.000E-03   8.435E-01
 400  6.71702781   0.770   1.01419   3.96082   7.18874   1.90240   0.00000   1.738E-01   1.412E-03   8.242E-01
 401  6.72101570   0.770   1.01337   3.96344   7.19415   1.91181   0.00000   1.935E-01   1.959E-03   8.045E-01
 402  6.72496731   0.770   1.01205   3.96581   7.19912   1.92033   0.00000   2.140E-01   2.486E-03   7.836E-01
 403  6.72888328   0.770   1.01067   3.96817   7.20406   1.92877   0.00000   2.344E-01   3.015E-03   7.626E-01
 404  6.73276426   0.770   1.00894   3.97030   7.20862   1.93638   0.00000   2.536E-01   3.698E-03   7.427E-01
 405  6.73661087   0.770   1.00706   3.97233   7.21303   1.94366   0.00000   2.731E-01   4.000E-03   7.229E-01
 406  6.74042370   0.770   1.00495   3.97424   7.21725   1.95050   0.00000   2.931E-01   4.407E-03   7.025E-01
 407  6.74420335   0.770   1.00261   3.97603   7.22129   1.95692   0.00000   3.133E-01   5.000E-03   6.817E-01
 408  6.74795040   0.770   1.00005   3.97769   7.22515   1.96292   0.00000   3.332E-01   5.640E-03   6.611E-01
 409  6.75166538   0.770   0.99727   3.97924   7.22887   1.96854   0.00000   3.541E-01   6.000E-03   6.399E-01
 410  6.75534886   0.770   0.99423   3.98067   7.23240   1.97374   0.00000   3.756E-01   7.000E-03   6.178E-01
 411  6.75900136   0.770   0.99101   3.98198   7.23579   1.97859   0.00000   3.969E-01   7.000E-03   5.962E-01
 412  6.76262340   0.770   0.98756   3.98318   7.23902   1.98305   0.00000   4.195E-01   7.000E-03   5.735E-01
 413  6.76621548   0.770   0.98392   3.98427   7.24211   1.98718   0.00045   4.411E-01   8.000E-03   5.509E-01
 414  6.76977809   0.770   0.98010   3.98525   7.24504   1.99096   0.00134   4.634E-01   8.000E-03   5.286E-01
 415  6.77331172   0.770   0.97610   3.98612   7.24781   1.99443   0.00447   4.857E-01   8.000E-03   5.063E-01
 416  6.77681682   0.770   0.97196   3.98691   7.25042   1.99760   0.00533   5.081E-01   8.000E-03   4.839E-01
 417  6.78029387   0.770   0.96768   3.98758   7.25290   2.00047   0.00893   5.310E-01   8.000E-03   4.610E-01
 418  6.78374329   0.770   0.96328   3.98816   7.25523   2.00307   0.00893   5.532E-01   8.000E-03   4.392E-01
 419  6.78716554   0.769   0.95878   3.98867   7.25741   2.00540   0.01489   5.753E-01   8.000E-03   4.167E-01
 420  6.79056103   0.769   0.95421   3.98908   7.25948   2.00750   0.02070   5.978E-01   8.000E-03   3.942E-01
 421  6.79393018   0.769   0.94959   3.98942   7.26129   2.00919   0.02251   6.205E-01   8.000E-03   3.722E-01
 422  6.79727339   0.769   0.94491   3.98968   7.26308   2.01083   0.02971   6.414E-01   7.398E-03   3.506E-01
 423  6.80059106   0.769   0.94021   3.98987   7.26471   2.01224   0.03517   6.635E-01   7.000E-03   3.295E-01
 424  6.80388358   0.769   0.93551   3.98999   7.26624   2.01352   0.04258   6.837E-01   7.000E-03   3.093E-01
 425  6.80715132   0.769   0.93082   3.99006   7.26763   2.01461   0.04727   7.042E-01   7.000E-03   2.888E-01
 426  6.81039466   0.769   0.92616   3.99007   7.26894   2.01557   0.05360   7.239E-01   7.000E-03   2.691E-01
 427  6.81361396   0.769   0.92154   3.99004   7.27013   2.01637   0.05956   7.428E-01   7.000E-03   2.502E-01
 428  6.81680957   0.769   0.91699   3.98996   7.27123   2.01706   0.06551   7.618E-01   7.000E-03   2.322E-01
 429  6.81998184   0.769   0.91250   3.98984   7.27224   2.01764   0.07061   7.788E-01   7.000E-03   2.142E-01
 430  6.82313111   0.769   0.90810   3.98968   7.27316   2.01810   0.07186   7.965E-01   6.926E-03   1.974E-01
 431  6.82625770   0.769   0.90381   3.98950   7.27399   2.01848   0.07668   8.127E-01   6.000E-03   1.810E-01
 432  6.82936194   0.769   0.89962   3.98928   7.27472   2.01873   0.08115   8.286E-01   6.000E-03   1.651E-01
 433  6.83244416   0.769   0.89555   3.98905   7.27537   2.01886   0.08636   8.440E-01   6.000E-03   1.500E-01
 434  6.83550465   0.769   0.89160   3.98880   7.27598   2.01899   0.08636   8.580E-01   6.000E-03   1.360E-01
 435  6.83854372   0.769   0.88778   3.98853   7.27653   2.01906   0.09232   8.717E-01   6.000E-03   1.227E-01
 436  6.84156168   0.769   0.88409   3.98825   7.27701   2.01904   0.09232   8.846E-01   6.000E-03   1.102E-01
 437  6.84455881   0.769   0.88053   3.98796   7.27745   2.01900   0.09827   8.965E-01   6.000E-03   9.829E-02
 438  6.84753540   0.769   0.87712   3.98766   7.27783   2.01891   0.09827   9.078E-01   6.000E-03   8.701E-02
 439  6.85049172   0.769   0.87386   3.98736   7.27817   2.01879   0.10123   9.180E-01   5.000E-03   7.672E-02
 440  6.85342806   0.769   0.87073   3.98705   7.27847   2.01862   0.10423   9.276E-01   5.000E-03   6.671E-02
 441  6.85634468   0.769   0.86777   3.98674   7.27873   2.01844   0.10423   9.368E-01   5.000E-03   5.789E-02
 442  6.85924184   0.769   0.86494   3.98644   7.27895   2.01825   0.10423   9.456E-01   5.000E-03   4.957E-02
 443  6.86211980   0.769   0.86228   3.98614   7.27914   2.01803   0.10423   9.534E-01   5.000E-03   4.200E-02
 444  6.86497882   0.769   0.85975   3.98585   7.27931   2.01780   0.10899   9.600E-01   5.000E-03   3.496E-02
 445  6.86781913   0.769   0.85737   3.98556   7.27943   2.01754   0.11018   9.672E-01   5.000E-03   2.807E-02
 446  6.87064100   0.769   0.85516   3.98528   7.27955   2.01729   0.11018   9.731E-01   5.000E-03   2.235E-02
 447  6.87344464   0.769   0.85307   3.98501   7.27963   2.01704   0.11018   9.786E-01   4.678E-03   1.712E-02
 448  6.87623030   0.769   0.85113   3.98475   7.27970   2.01679   0.11018   9.834E-01   4.000E-03   1.241E-02
 449  6.87899821   0.769   0.84933   3.98450   7.27975   2.01654   0.11018   9.873E-01   4.000E-03   8.174E-03
 450  6.88174859   0.769   0.84766   3.98427   7.27978   2.01629   0.11018   9.912E-01   4.000E-03   4.356E-03
 451  6.88448166   0.769   0.84611   3.98404   7.27980   2.01604   0.11018   9.953E-01   4.000E-03   8.919E-04
 452  6.88719764   0.769   0.84470   3.98383   7.27981   2.01580   0.11018   9.976E-01   4.000E-03  -2.045E-03
 453  6.88989674   0.769   0.84341   3.98363   7.27980   2.01557   0.11018   1.000E+00   4.000E-03  -4.554E-03
 454  6.89257917   0.769   0.84223   3.98344   7.27979   2.01535   0.11018   1.003E+00   4.000E-03  -6.769E-03
 455  6.89524513   0.769   0.84115   3.98326   7.27977   2.01514   0.11018   1.005E+00   4.000E-03  -8.692E-03
 456  6.89789482   0.769   0.84021   3.98310   7.27975   2.01493   0.11018   1.006E+00   4.000E-03  -1.027E-02
 457  6.90052845   0.769   0.83930   3.98293   7.27972   2.01473   0.11018   1.008E+00   4.000E-03  -1.176E-02
 458  6.90314620   0.769   0.83857   3.98280   7.27968   2.01455   0.11018   1.009E+00   4.000E-03  -1.269E-02
 459  6.90574827   0.769   0.83784   3.98267   7.27964   2.01437   0.11018   1.010E+00   4.000E-03  -1.359E-02
 460  6.90833484   0.769   0.83727   3.98256   7.27959   2.01421   0.11018   1.011E+00   3.720E-03  -1.414E-02
 461  6.91090610   0.769   0.83674   3.98245   7.27955   2.01406   0.11018   1.011E+00   3.358E-03  -1.457E-02
 462  6.91346222   0.769   0.83622   3.98234   7.27950   2.01391   0.11018   1.012E+00   3.000E-03  -1.500E-02
 463  6.91600339   0.769   0.83590   3.98226   7.27945   2.01379   0.11018   1.012E+00   3.000E-03  -1.500E-02
 464  6.91852977   0.769   0.83557   3.98218   7.27940   2.01368   0.11018   1.012E+00   3.000E-03  -1.500E-02
 465  6.92104155   0.769   0.83525   3.98210   7.27936   2.01356   0.11018   1.012E+00   3.000E-03  -1.500E-02
 466  6.92353888   0.769   0.83497   3.98203   7.27931   2.01345   0.11018   1.012E+00   3.000E-03  -1.493E-02
 467  6.92602193   0.769   0.83485   3.98199   7.27927   2.01338   0.11018   1.012E+00   3.000E-03  -1.461E-02
 468  6.92849086   0.769   0.83473   3.98194   7.27922   2.01331   0.11018   1.011E+00   3.000E-03  -1.430E-02
 469  6.93094584   0.769   0.83460   3.98190   7.27918   2.01324   0.11018   1.011E+00   3.000E-03  -1.398E-02
 470  6.93338702   0.769   0.83448   3.98185   7.27913   2.01317   0.11018   1.011E+00   3.000E-03  -1.366E-02
 471  6.93581455   0.769   0.83436   3.98181   7.27909   2.01310   0.11018   1.010E+00   3.000E-03  -1.335E-02
 472  6.93822859   0.769   0.83431   3.98178   7.27905   2.01305   0.11018   1.010E+00   3.000E-03  -1.299E-02
 473  6.94062929   0.769   0.83433   3.98176   7.27902   2.01302   0.11018   1.009E+00   3.000E-03  -1.260E-02
 474  6.94301679   0.769   0.83434   3.98174   7.27898   2.01298   0.11018   1.009E+00   3.000E-03  -1.221E-02
 475  6.94539123   0.769   0.83436   3.98172   7.27895   2.01295   0.11018   1.009E+00   3.000E-03  -1.182E-02
 476  6.94775277   0.769   0.83438   3.98170   7.27892   2.01292   0.11018   1.008E+00   3.000E-03  -1.143E-02
 477  6.95010153   0.769   0.83440   3.98169   7.27888   2.01288   0.11018   1.008E+00   3.000E-03  -1.104E-02
 478  6.95243766   0.769   0.83442   3.98167   7.27885   2.01285   0.11018   1.008E+00   3.000E-03  -1.065E-02
 479  6.95476128   0.769   0.83443   3.98165   7.27881   2.01281   0.11018   1.007E+00   3.000E-03  -1.026E-02
 480  6.95707255   0.769   0.83445   3.98163   7.27878   2.01278   0.11018   1.007E+00   2.999E-03  -9.876E-03
 481  6.95937157   0.769   0.83452   3.98163   7.27876   2.01277   0.11018   1.007E+00   2.921E-03  -9.596E-03
 482  6.96165849   0.769   0.83459   3.98163   7.27874   2.01276   0.11018   1.007E+00   2.842E-03  -9.316E-03
 483  6.96393344   0.769   0.83466   3.98162   7.27872   2.01275   0.11018   1.006E+00   2.764E-03  -9.036E-03
 484  6.96619652   0.769   0.83474   3.98162   7.27870   2.01274   0.11018   1.006E+00   2.686E-03  -8.756E-03
 485  6.96844788   0.769   0.83481   3.98162   7.27868   2.01273   0.11018   1.006E+00   2.608E-03  -8.476E-03
 486  6.97068762   0.769   0.83488   3.98162   7.27866   2.01272   0.11018   1.006E+00   2.530E-03  -8.196E-03
 487  6.97291587   0.769   0.83495   3.98161   7.27864   2.01271   0.11018   1.005E+00   2.451E-03  -7.916E-03
 488  6.97513275   0.769   0.83502   3.98161   7.27862   2.01270   0.11018   1.005E+00   2.373E-03  -7.636E-03
 489  6.97733837   0.769   0.83509   3.98161   7.27860   2.01270   0.11018   1.005E+00   2.295E-03  -7.356E-03
 490  6.97953285   0.769   0.83516   3.98161   7.27858   2.01269   0.11018   1.005E+00   2.217E-03  -7.076E-03
 491  6.98171629   0.769   0.83523   3.98160   7.27856   2.01268   0.11018   1.004E+00   2.139E-03  -6.796E-03
 492  6.98388881   0.769   0.83531   3.98160   7.27854   2.01267   0.11018   1.004E+00   2.060E-03  -6.516E-03
 493  6.98605051   0.769   0.83537   3.98160   7.27852   2.01266   0.11018   1.004E+00   2.000E-03  -6.268E-03
 494  6.98820151   0.769   0.83544   3.98160   7.27851   2.01266   0.11018   1.004E+00   2.000E-03  -6.128E-03
 495  6.99034191   0.768   0.83550   3.98160   7.27850   2.01266   0.11018   1.004E+00   2.000E-03  -5.989E-03
 496  6.99247181   0.768   0.83557   3.98161   7.27848   2.01266   0.11018   1.004E+00   2.000E-03  -5.849E-03
 497  6.99459132   0.768   0.83563   3.98161   7.27847   2.01266   0.11018   1.004E+00   2.000E-03  -5.709E-03
 498  6.99670053   0.768   0.83569   3.98161   7.27846   2.01266   0.11018   1.003E+00   2.000E-03  -5.569E-03
 499  6.99879955   0.768   0.83576   3.98161   7.27845   2.01266   0.11018   1.003E+00   2.000E-03  -5.430E-03
 500  7.00088847   0.768   0.83582   3.98162   7.27844   2.01266   0.11018   1.003E+00   2.000E-03  -5.290E-03
 501  7.00296739   0.768   0.83588   3.98162   7.27843   2.01266   0.11018   1.003E+00   2.000E-03  -5.150E-03
 502  7.00503641   0.768   0.83595   3.98162   7.27842   2.01266   0.11018   1.003E+00   2.000E-03  -5.011E-03
 503  7.00709562   0.768   0.83601   3.98162   7.27841   2.01265   0.11018   1.003E+00   2.000E-03  -4.871E-03
 504  7.00914511   0.768   0.83607   3.98162   7.27840   2.01265   0.11018   1.003E+00   2.000E-03  -4.731E-03
 505  7.01118497   0.768   0.83614   3.98163   7.27839   2.01265   0.11018   1.003E+00   2.000E-03  -4.591E-03
 506  7.01321530   0.768   0.83620   3.98163   7.27838   2.01265   0.11018   1.003E+00   2.000E-03  -4.452E-03
 507  7.01523618   0.768   0.83627   3.98163   7.27836   2.01265   0.11018   1.003E+00   2.000E-03  -4.312E-03
 508  7.01724770   0.768   0.83633   3.98163   7.27835   2.01265   0.11018   1.002E+00   2.000E-03  -4.172E-03
 509  7.01924994   0.768   0.83639   3.98163   7.27834   2.01265   0.11018   1.002E+00   2.000E-03  -4.032E-03
 510  7.02124300   0.768   0.83646   3.98164   7.27833   2.01265   0.11018   1.002E+00   2.000E-03  -3.893E-03
 511  7.02322695   0.768   0.83652   3.98164   7.27832   2.01265   0.11018   1.002E+00   2.000E-03  -3.753E-03
 512  7.02520188   0.768   0.83658   3.98164   7.27831   2.01265   0.11018   1.002E+00   2.000E-03  -3.617E-03
 513  7.02716787   0.768   0.83662   3.98164   7.27831   2.01265   0.11018   1.002E+00   2.000E-03  -3.563E-03
 514  7.02912501   0.768   0.83666   3.98164   7.27830   2.01266   0.11018   1.002E+00   2.000E-03  -3.508E-03
 515  7.03107336   0.768   0.83670   3.98164   7.27830   2.01266   0.11018   1.002E+00   2.000E-03  -3.454E-03
 516  7.03301300   0.768   0.83674   3.98164   7.27829   2.01266   0.11018   1.002E+00   2.000E-03  -3.399E-03
 517  7.03494403   0.768   0.83678   3.98165   7.27829   2.01266   0.11018   1.002E+00   2.000E-03  -3.344E-03
 518  7.03686651   0.768   0.83682   3.98165   7.27828   2.01267   0.11018   1.002E+00   2.000E-03  -3.290E-03
 519  7.03878051   0.768   0.83686   3.98165   7.27828   2.01267   0.11018   1.002E+00   2.000E-03  -3.235E-03
 520  7.04068611   0.768   0.83690   3.98165   7.27827   2.01267   0.11018   1.001E+00   2.000E-03  -3.181E-03
 521  7.04258340   0.768   0.83694   3.98165   7.27827   2.01268   0.11018   1.001E+00   2.000E-03  -3.126E-03
 522  7.04447242   0.768   0.83698   3.98165   7.27826   2.01268   0.11018   1.001E+00   2.000E-03  -3.072E-03
 523  7.04635327   0.768   0.83702   3.98165   7.27826   2.01268   0.11018   1.001E+00   2.000E-03  -3.017E-03
 524  7.04822601   0.768   0.83706   3.98165   7.27826   2.01268   0.11018   1.001E+00   2.000E-03  -2.962E-03
 525  7.05009070   0.768   0.83710   3.98165   7.27825   2.01269   0.11018   1.001E+00   2.000E-03  -2.908E-03
 526  7.05194743   0.768   0.83714   3.98165   7.27825   2.01269   0.11018   1.001E+00   2.000E-03  -2.853E-03
 527  7.05379625   0.768   0.83718   3.98166   7.27824   2.01269   0.11018   1.001E+00   2.000E-03  -2.799E-03
 528  7.05563723   0.768   0.83722   3.98166   7.27824   2.01269   0.11018   1.001E+00   2.000E-03  -2.744E-03
 529  7.05747044   0.768   0.83726   3.98166   7.27823   2.01270   0.11018   1.001E+00   2.000E-03  -2.690E-03
 530  7.05929594   0.768   0.83730   3.98166   7.27823   2.01270   0.11018   1.001E+00   2.000E-03  -2.635E-03
 531  7.06111381   0.768   0.83733   3.98166   7.27822   2.01270   0.11018   1.001E+00   2.000E-03  -2.580E-03
 532  7.06292409   0.768   0.83737   3.98166   7.27822   2.01271   0.11018   1.001E+00   2.000E-03  -2.526E-03
 533  7.06472687   0.768   0.83741   3.98166   7.27821   2.01271   0.11018   1.001E+00   2.000E-03  -2.471E-03
 534  7.06652219   0.768   0.83745   3.98166   7.27821   2.01271   0.11018   1.000E+00   2.000E-03  -2.417E-03
 535  7.06831012   0.768   0.83749   3.98166   7.27821   2.01271   0.11018   1.000E+00   2.000E-03  -2.362E-03
 536  7.07009071   0.768   0.83753   3.98167   7.27820   2.01272   0.11018   1.000E+00   2.000E-03  -2.308E-03
 537  7.07186404   0.768   0.83757   3.98167   7.27820   2.01272   0.11018   1.000E+00   2.000E-03  -2.253E-03
 538  7.07363016   0.768   0.83761   3.98167   7.27819   2.01272   0.11018   1.000E+00   2.000E-03  -2.198E-03
 539  7.07538912   0.768   0.83765   3.98167   7.27819   2.01273   0.11018   1.000E+00   2.000E-03  -2.144E-03
 540  7.07714099   0.768   0.83769   3.98167   7.27818   2.01273   0.11018   1.000E+00   2.000E-03  -2.089E-03
 541  7.07888582   0.768   0.83773   3.98167   7.27818   2.01273   0.11018   1.000E+00   2.000E-03  -2.045E-03
 542  7.08062366   0.768   0.83775   3.98167   7.27818   2.01274   0.11018   1.000E+00   2.000E-03  -2.025E-03
 543  7.08235458   0.768   0.83778   3.98167   7.27818   2.01274   0.11018   1.000E+00   2.000E-03  -2.006E-03
 544  7.08407863   0.768   0.83780   3.98167   7.27817   2.01274   0.11018   1.000E+00   2.000E-03  -1.986E-03
 545  7.08579587   0.768   0.83783   3.98167   7.27817   2.01275   0.11018   1.000E+00   2.000E-03  -1.967E-03
 546  7.08750634   0.768   0.83785   3.98167   7.27817   2.01275   0.11018   1.000E+00   2.000E-03  -1.947E-03
 547  7.08921010   0.768   0.83787   3.98168   7.27817   2.01276   0.11018   1.000E+00   2.000E-03  -1.928E-03
 548  7.09090720   0.768   0.83790   3.98168   7.27817   2.01276   0.11018   1.000E+00   2.000E-03  -1.908E-03
 549  7.09259769   0.768   0.83792   3.98168   7.27817   2.01276   0.11018   1.000E+00   2.000E-03  -1.889E-03
 550  7.09428163   0.768   0.83795   3.98168   7.27816   2.01277   0.11018   1.000E+00   2.000E-03  -1.869E-03
 551  7.09595907   0.768   0.83797   3.98168   7.27816   2.01277   0.11018   1.000E+00   2.000E-03  -1.850E-03
 552  7.09763005   0.768   0.83800   3.98168   7.27816   2.01278   0.11018   1.000E+00   2.000E-03  -1.830E-03
 553  7.09929463   0.768   0.83802   3.98168   7.27816   2.01278   0.11018   1.000E+00   2.000E-03  -1.811E-03
 554  7.10095285   0.768   0.83805   3.98168   7.27816   2.01279   0.11018   1.000E+00   2.000E-03  -1.791E-03
 555  7.10260476   0.768   0.83807   3.98168   7.27816   2.01279   0.11018   1.000E+00   2.000E-03  -1.772E-03
 556  7.10425042   0.768   0.83810   3.98168   7.27816   2.01279   0.11018   1.000E+00   2.000E-03  -1.753E-03
 557  7.10588986   0.768   0.83812   3.98169   7.27815   2.01280   0.11018   1.000E+00   2.000E-03  -1.733E-03
 558  7.10752314   0.768   0.83814   3.98169   7.27815   2.01280   0.11018   1.000E+00   2.000E-03  -1.714E-03
 559  7.10915030   0.768   0.83817   3.98169   7.27815   2.01281   0.11018   1.000E+00   2.000E-03  -1.694E-03
 560  7.11077138   0.768   0.83819   3.98169   7.27815   2.01281   0.11018   1.000E+00   2.000E-03  -1.675E-03
 561  7.11238644   0.768   0.83822   3.98169   7.27815   2.01281   0.11018   1.000E+00   2.000E-03  -1.655E-03
 562  7.11399551   0.768   0.83824   3.98169   7.27815   2.01282   0.11018   1.000E+00   2.000E-03  -1.636E-03
 563  7.11559864   0.768   0.83827   3.98169   7.27814   2.01282   0.11018   1.000E+00   2.000E-03  -1.616E-03
 564  7.11719588   0.767   0.83829   3.98169   7.27814   2.01283   0.11018   1.000E+00   2.000E-03  -1.597E-03
 565  7.11878726   0.767   0.83832   3.98169   7.27814   2.01283   0.11018   1.000E+00   2.000E-03  -1.577E-03
 566  7.12037283   0.767   0.83834   3.98169   7.27814   2.01284   0.11018   1.000E+00   2.000E-03  -1.558E-03
 567  7.12195264   0.767   0.83837   3.98169   7.27814   2.01284   0.11018   1.000E+00   2.000E-03  -1.538E-03
 568  7.12352672   0.767   0.83839   3.98170   7.27814   2.01284   0.11018   1.000E+00   2.000E-03  -1.519E-03
 569  7.12509511   0.767   0.83841   3.98170   7.27813   2.01285   0.11018   1.000E+00   2.000E-03  -1.500E-03
 570  7.12665786   0.767   0.83844   3.98170   7.27813   2.01285   0.11018   1.000E+00   2.000E-03  -1.480E-03
 571  7.12821501   0.767   0.83846   3.98170   7.27813   2.01286   0.11018   1.000E+00   2.000E-03  -1.461E-03
 572  7.12976660   0.767   0.83849   3.98170   7.27813   2.01286   0.11018   1.000E+00   2.000E-03  -1.441E-03
 573  7.13131266   0.767   0.83851   3.98170   7.27813   2.01286   0.11018   1.000E+00   2.000E-03  -1.422E-03
 574  7.13285324   0.767   0.83854   3.98170   7.27813   2.01287   0.11018   1.000E+00   2.000E-03  -1.402E-03
 575  7.13438837   0.767   0.83856   3.98170   7.27812   2.01287   0.11018   1.000E+00   2.000E-03  -1.383E-03
 576  7.13591809   0.767   0.83859   3.98170   7.27812   2.01288   0.11018   1.000E+00   2.000E-03  -1.363E-03
 577  7.13744245   0.767   0.83861   3.98170   7.27812   2.01288   0.11018   1.000E+00   2.000E-03  -1.344E-03
 578  7.13896147   0.767   0.83864   3.98170   7.27812   2.01289   0.11018   1.000E+00   2.000E-03  -1.324E-03
 579  7.14047520   0.767   0.83866   3.98171   7.27812   2.01289   0.11018   1.000E+00   2.000E-03  -1.305E-03
 580  7.14198367   0.767   0.83868   3.98171   7.27812   2.01289   0.11018   1.000E+00   2.000E-03  -1.285E-03
 581  7.14348692   0.767   0.83871   3.98171   7.27811   2.01290   0.11018   1.000E+00   2.000E-03  -1.266E-03
 582  7.14498499   0.767   0.83873   3.98171   7.27811   2.01290   0.11018   1.000E+00   2.000E-03  -1.246E-03
 583  7.14647790   0.767   0.83876   3.98171   7.27811   2.01291   0.11018   1.000E+00   2.000E-03  -1.227E-03
 584  7.14796570   0.767   0.83878   3.98171   7.27811   2.01291   0.11018   1.000E+00   1.998E-03  -1.209E-03
 585  7.14944842   0.767   0.83880   3.98171   7.27811   2.01292   0.11018   1.000E+00   1.983E-03  -1.202E-03
 586  7.15092610   0.767   0.83882   3.98171   7.27811   2.01292   0.11018   1.000E+00   1.967E-03  -1.195E-03
 587  7.15239876   0.767   0.83883   3.98171   7.27811   2.01293   0.11018   1.000E+00   1.952E-03  -1.187E-03
 588  7.15386645   0.767   0.83885   3.98171   7.27811   2.01293   0.11018   9.999E-01   1.936E-03  -1.180E-03
 589  7.15532920   0.767   0.83886   3.98171   7.27811   2.01294   0.11018   9.999E-01   1.921E-03  -1.173E-03
 590  7.15678703   0.767   0.83888   3.98171   7.27811   2.01294   0.11018   9.999E-01   1.905E-03  -1.166E-03
 591  7.15823999   0.767   0.83890   3.98171   7.27811   2.01295   0.11018   9.999E-01   1.890E-03  -1.158E-03
 592  7.15968810   0.767   0.83891   3.98171   7.27811   2.01295   0.11018   9.999E-01   1.874E-03  -1.151E-03
 593  7.16113140   0.767   0.83893   3.98171   7.27811   2.01296   0.11018   9.999E-01   1.859E-03  -1.144E-03
 594  7.16256992   0.767   0.83895   3.98171   7.27811   2.01296   0.11018   9.998E-01   1.844E-03  -1.137E-03
 595  7.16400369   0.767   0.83896   3.98172   7.27811   2.01297   0.11018   9.998E-01   1.828E-03  -1.130E-03
 596  7.16543274   0.767   0.83898   3.98172   7.27811   2.01297   0.11018   9.998E-01   1.813E-03  -1.122E-03
 597  7.16685711   0.767   0.83900   3.98172   7.27811   2.01297   0.11018   9.998E-01   1.797E-03  -1.115E-03
 598  7.16827682   0.767   0.83901   3.98172   7.27811   2.01298   0.11018   9.998E-01   1.782E-03  -1.108E-03
 599  7.16969190   0.767   0.83903   3.98172   7.27811   2.01298   0.11018   9.998E-01   1.766E-03  -1.101E-03
 600  7.17110239   0.767   0.83905   3.98172   7.27811   2.01299   0.11018   9.998E-01   1.751E-03  -1.093E-03
 601  7.17250831   0.767   0.83906   3.98172   7.27812   2.01299   0.11018   9.997E-01   1.735E-03  -1.086E-03
 602  7.17390970   0.767   0.83908   3.98172   7.27812   2.01300   0.11018   9.997E-01   1.720E-03  -1.079E-03
 603  7.17530657   0.767   0.83910   3.98172   7.27812   2.01300   0.11018   9.997E-01   1.705E-03  -1.072E-03
 604  7.17669897   0.767   0.83911   3.98172   7.27812   2.01301   0.11018   9.997E-01   1.689E-03  -1.064E-03
 605  7.17808692   0.767   0.83913   3.98172   7.27812   2.01301   0.11018   9.997E-01   1.674E-03  -1.057E-03
 606  7.17947045   0.767   0.83915   3.98172   7.27812   2.01302   0.11018   9.997E-01   1.658E-03  -1.050E-03
 607  7.18084958   0.767   0.83916   3.98172   7.27812   2.01302   0.11018   9.996E-01   1.643E-03  -1.043E-03
 608  7.18222435   0.767   0.83918   3.98172   7.27812   2.01303   0.11018   9.996E-01   1.627E-03  -1.036E-03
 609  7.18359478   0.767   0.83920   3.98172   7.27812   2.01303   0.11018   9.996E-01   1.612E-03  -1.028E-03
 610  7.18496090   0.767   0.83921   3.98172   7.27812   2.01304   0.11018   9.996E-01   1.596E-03  -1.021E-03
 611  7.18632274   0.767   0.83923   3.98172   7.27812   2.01304   0.11018   9.996E-01   1.581E-03  -1.014E-03
 612  7.18768031   0.767   0.83924   3.98172   7.27812   2.01305   0.11018   9.996E-01   1.565E-03  -1.007E-03
 613  7.18903366   0.767   0.83926   3.98172   7.27812   2.01305   0.11018   9.996E-01   1.550E-03  -9.994E-04
 614  7.19038281   0.767   0.83928   3.98172   7.27812   2.01306   0.11018   9.995E-01   1.535E-03  -9.922E-04
 615  7.19172777   0.767   0.83929   3.98172   7.27812   2.01306   0.11018   9.995E-01   1.519E-03  -9.849E-04
 616  7.19306858   0.767   0.83931   3.98172   7.27812   2.01307   0.11018   9.995E-01   1.504E-03  -9.777E-04
 617  7.19440527   0.767   0.83933   3.98173   7.27812   2.01307   0.11018   9.995E-01   1.488E-03  -9.705E-04
 618  7.19573786   0.767   0.83934   3.98173   7.27812   2.01308   0.11018   9.995E-01   1.473E-03  -9.633E-04
 619  7.19706636   0.767   0.83936   3.98173   7.27812   2.01308   0.11018   9.995E-01   1.457E-03  -9.560E-04
 620  7.19839082   0.767   0.83938   3.98173   7.27812   2.01309   0.11018   9.994E-01   1.442E-03  -9.488E-04
 621  7.19971125   0.767   0.83939   3.98173   7.27812   2.01309   0.11018   9.994E-01   1.426E-03  -9.416E-04
 622  7.20102768   0.767   0.83941   3.98173   7.27812   2.01310   0.11018   9.994E-01   1.411E-03  -9.343E-04
 623  7.20234013   0.767   0.83943   3.98173   7.27812   2.01310   0.11018   9.994E-01   1.396E-03  -9.271E-04
 624  7.20364862   0.767   0.83944   3.98173   7.27812   2.01311   0.11018   9.994E-01   1.380E-03  -9.199E-04
 625  7.20495319   0.767   0.83946   3.98173   7.27812   2.01311   0.11018   9.994E-01   1.365E-03  -9.126E-04
 626  7.20625385   0.767   0.83948   3.98173   7.27812   2.01312   0.11018   9.993E-01   1.349E-03  -9.054E-04
 627  7.20755062   0.767   0.83949   3.98173   7.27812   2.01312   0.11018   9.993E-01   1.334E-03  -8.982E-04
 628  7.20884353   0.767   0.83951   3.98173   7.27812   2.01313   0.11018   9.993E-01   1.318E-03  -8.910E-04
 629  7.21013261   0.767   0.83953   3.98173   7.27812   2.01313   0.11018   9.993E-01   1.303E-03  -8.837E-04
 630  7.21141787   0.767   0.83954   3.98173   7.27812   2.01314   0.11018   9.993E-01   1.287E-03  -8.765E-04
 631  7.21269934   0.767   0.83956   3.98173   7.27812   2.01314   0.11018   9.993E-01   1.272E-03  -8.693E-04
 632  7.21397704   0.767   0.83958   3.98173   7.27812   2.01315   0.11018   9.993E-01   1.256E-03  -8.620E-04
 633  7.21525099   0.767   0.83959   3.98173   7.27813   2.01315   0.11018   9.992E-01   1.241E-03  -8.548E-04
 634  7.21652121   0.766   0.83961   3.98173   7.27813   2.01316   0.11018   9.992E-01   1.226E-03  -8.476E-04
 635  7.21778773   0.766   0.83963   3.98173   7.27813   2.01316   0.11018   9.992E-01   1.210E-03  -8.403E-04
 636  7.21905057   0.766   0.83964   3.98173   7.27813   2.01317   0.11018   9.992E-01   1.195E-03  -8.331E-04
 637  7.22030974   0.766   0.83966   3.98173   7.27813   2.01317   0.11018   9.992E-01   1.179E-03  -8.259E-04
 638  7.22156528   0.766   0.83967   3.98174   7.27813   2.01318   0.11018   9.992E-01   1.164E-03  -8.187E-04
 639  7.22281719   0.766   0.83969   3.98174   7.27813   2.01318   0.11018   9.991E-01   1.148E-03  -8.114E-04
 640  7.22406551   0.766   0.83971   3.98174   7.27813   2.01319   0.11018   9.991E-01   1.133E-03  -8.042E-04
 641  7.22531025   0.766   0.83972   3.98174   7.27813   2.01319   0.11018   9.991E-01   1.117E-03  -7.970E-04
 642  7.22655144   0.766   0.83974   3.98174   7.27813   2.01320   0.11018   9.991E-01   1.102E-03  -7.897E-04
 643  7.22778908   0.766   0.83976   3.98174   7.27813   2.01320   0.11018   9.991E-01   1.087E-03  -7.825E-04
 644  7.22902321   0.766   0.83977   3.98174   7.27813   2.01321   0.11018   9.991E-01   1.071E-03  -7.753E-04
 645  7.23025384   0.766   0.83979   3.98174   7.27813   2.01321   0.11018   9.991E-01   1.056E-03  -7.680E-04
 646  7.23148099   0.766   0.83981   3.98174   7.27813   2.01322   0.11018   9.990E-01   1.040E-03  -7.608E-04
 647  7.23270469   0.766   0.83982   3.98174   7.27813   2.01322   0.11018   9.990E-01   1.025E-03  -7.536E-04
 648  7.23392495   0.766   0.83984   3.98174   7.27813   2.01323   0.11018   9.990E-01   1.009E-03  -7.464E-04
 649  7.23514179   0.766   0.83985   3.98174   7.27813   2.01323   0.11018   9.990E-01   1.000E-03  -7.409E-04
 650  7.23635523   0.766   0.83987   3.98174   7.27813   2.01324   0.11018   9.990E-01   1.000E-03  -7.380E-04
 651  7.23756528   0.766   0.83988   3.98174   7.27813   2.01324   0.11018   9.990E-01   1.000E-03  -7.352E-04
 652  7.23877198   0.766   0.83989   3.98174   7.27813   2.01325   0.11018   9.990E-01   1.000E-03  -7.324E-04
 653  7.23997533   0.766   0.83990   3.98174   7.27814   2.01325   0.11018   9.990E-01   1.000E-03  -7.295E-04
 654  7.24117536   0.766   0.83992   3.98174   7.27814   2.01326   0.11018   9.990E-01   1.000E-03  -7.267E-04
 655  7.24237208   0.766   0.83993   3.98174   7.27814   2.01326   0.11018   9.990E-01   1.000E-03  -7.239E-04
 656  7.24356551   0.766   0.83994   3.98174   7.27814   2.01327   0.11018   9.990E-01   1.000E-03  -7.210E-04
 657  7.24475567   0.766   0.83995   3.98174   7.27814   2.01327   0.11018   9.990E-01   1.000E-03  -7.182E-04
 658  7.24594258   0.766   0.83997   3.98174   7.27814   2.01328   0.11018   9.990E-01   1.000E-03  -7.154E-04
 659  7.24712626   0.766   0.83998   3.98175   7.27814   2.01328   0.11018   9.990E-01   1.000E-03  -7.126E-04
 660  7.24830671   0.766   0.83999   3.98175   7.27815   2.01329   0.11018   9.990E-01   1.000E-03  -7.097E-04
 661  7.24948397   0.766   0.84000   3.98175   7.27815   2.01330   0.11018   9.990E-01   1.000E-03  -7.069E-04
 662  7.25065804   0.766   0.84002   3.98175   7.27815   2.01330   0.11018   9.990E-01   1.000E-03  -7.041E-04
 663  7.25182895   0.766   0.84003   3.98175   7.27815   2.01331   0.11018   9.990E-01   1.000E-03  -7.012E-04
 664  7.25299671   0.766   0.84004   3.98175   7.27815   2.01331   0.11018   9.990E-01   1.000E-03  -6.984E-04
 665  7.25416134   0.766   0.84005   3.98175   7.27815   2.01332   0.11018   9.990E-01   1.000E-03  -6.956E-04
 666  7.25532286   0.766   0.84007   3.98175   7.27815   2.01332   0.11018   9.990E-01   1.000E-03  -6.927E-04
 667  7.25648127   0.766   0.84008   3.98175   7.27815   2.01333   0.11018   9.990E-01   1.000E-03  -6.899E-04
 668  7.25763661   0.766   0.84009   3.98175   7.27816   2.01333   0.11018   9.990E-01   1.000E-03  -6.871E-04
 669  7.25878887   0.766   0.84010   3.98175   7.27816   2.01334   0.11018   9.990E-01   1.000E-03  -6.842E-04
 670  7.25993809   0.766   0.84012   3.98175   7.27816   2.01334   0.11018   9.990E-01   1.000E-03  -6.814E-04
 671  7.26108428   0.766   0.84013   3.98175   7.27816   2.01335   0.11018   9.990E-01   1.000E-03  -6.786E-04
 672  7.26222745   0.766   0.84014   3.98175   7.27816   2.01335   0.11018   9.990E-01   1.000E-03  -6.757E-04
 673  7.26336762   0.766   0.84015   3.98175   7.27816   2.01336   0.11018   9.990E-01   1.000E-03  -6.729E-04
 674  7.26450480   0.766   0.84017   3.98175   7.27816   2.01336   0.11018   9.990E-01   1.000E-03  -6.701E-04
 675  7.26563901   0.766   0.84018   3.98175   7.27817   2.01337   0.11018   9.990E-01   1.000E-03  -6.672E-04
 676  7.26677027   0.766   0.84019   3.98175   7.27817   2.01337   0.11018   9.990E-01   1.000E-03  -6.644E-04
 677  7.26789859   0.766   0.84020   3.98175   7.27817   2.01338   0.11018   9.990E-01   1.000E-03  -6.616E-04
 678  7.26902399   0.766   0.84022   3.98176   7.27817   2.01338   0.11018   9.990E-01   1.000E-03  -6.587E-04
 679  7.27014648   0.766   0.84023   3.98176   7.27817   2.01339   0.11018   9.990E-01   1.000E-03  -6.559E-04
 680  7.27126607   0.766   0.84024   3.98176   7.27817   2.01339   0.11018   9.990E-01   1.000E-03  -6.531E-04
 681  7.27238278   0.766   0.84025   3.98176   7.27817   2.01340   0.11018   9.990E-01   1.000E-03  -6.502E-04
 682  7.27349663   0.766   0.84027   3.98176   7.27817   2.01341   0.11018   9.990E-01   1.000E-03  -6.474E-04
 683  7.27460763   0.766   0.84028   3.98176   7.27818   2.01341   0.11018   9.990E-01   1.000E-03  -6.446E-04
 684  7.27571580   0.766   0.84029   3.98176   7.27818   2.01342   0.11018   9.990E-01   1.000E-03  -6.417E-04
 685  7.27682115   0.766   0.84030   3.98176   7.27818   2.01342   0.11018   9.990E-01   1.000E-03  -6.389E-04
 686  7.27792368   0.766   0.84032   3.98176   7.27818   2.01343   0.11018   9.990E-01   1.000E-03  -6.361E-04
 687  7.27902343   0.766   0.84033   3.98176   7.27818   2.01343   0.11018   9.990E-01   1.000E-03  -6.332E-04
 688  7.28012040   0.766   0.84034   3.98176   7.27818   2.01344   0.11018   9.990E-01   1.000E-03  -6.304E-04
 689  7.28121461   0.766   0.84035   3.98176   7.27818   2.01344   0.11018   9.990E-01   1.000E-03  -6.276E-04
 690  7.28230606   0.766   0.84037   3.98176   7.27819   2.01345   0.11018   9.990E-01   1.000E-03  -6.248E-04
 691  7.28339478   0.766   0.84038   3.98176   7.27819   2.01345   0.11018   9.990E-01   1.000E-03  -6.219E-04
 692  7.28448078   0.766   0.84039   3.98176   7.27819   2.01346   0.11018   9.990E-01   1.000E-03  -6.191E-04
 693  7.28556407   0.766   0.84040   3.98176   7.27819   2.01346   0.11018   9.990E-01   1.000E-03  -6.163E-04
 694  7.28664466   0.766   0.84042   3.98176   7.27819   2.01347   0.11018   9.990E-01   1.000E-03  -6.134E-04
 695  7.28772257   0.766   0.84043   3.98176   7.27819   2.01347   0.11018   9.990E-01   1.000E-03  -6.106E-04
 696  7.28879782   0.766   0.84044   3.98176   7.27819   2.01348   0.11018   9.990E-01   1.000E-03  -6.078E-04
 697  7.28987040   0.766   0.84045   3.98176   7.27819   2.01348   0.11018   9.990E-01   1.000E-03  -6.049E-04
 698  7.29094035   0.766   0.84047   3.98177   7.27820   2.01349   0.11018   9.990E-01   1.000E-03  -6.021E-04
 699  7.29200766   0.766   0.84048   3.98177   7.27820   2.01349   0.11018   9.990E-01   1.000E-03  -5.993E-04
 700  7.29307236   0.766   0.84049   3.98177   7.27820   2.01350   0.11018   9.990E-01   1.000E-03  -5.964E-04
 701  7.29413445   0.766   0.84050   3.98177   7.27820   2.01351   0.11018   9.990E-01   1.000E-03  -5.936E-04
 702  7.29519396   0.766   0.84052   3.98177   7.27820   2.01351   0.11018   9.990E-01   1.000E-03  -5.908E-04
 703  7.29625088   0.765   0.84053   3.98177   7.27820   2.01352   0.11018   9.990E-01   1.000E-03  -5.879E-04
 704  7.29730524   0.765   0.84054   3.98177   7.27820   2.01352   0.11018   9.990E-01   1.000E-03  -5.851E-04
 705  7.29835705   0.765   0.84055   3.98177   7.27821   2.01353   0.11018   9.990E-01   1.000E-03  -5.823E-04
 706  7.29940631   0.765   0.84057   3.98177   7.27821   2.01353   0.11018   9.990E-01   1.000E-03  -5.794E-04
 707  7.30045305   0.765   0.84058   3.98177   7.27821   2.01354   0.11018   9.990E-01   1.000E-03  -5.766E-04
 708  7.30149726   0.765   0.84059   3.98177   7.27821   2.01354   0.11018   9.990E-01   1.000E-03  -5.738E-04
 709  7.30253898   0.765   0.84060   3.98177   7.27821   2.01355   0.11018   9.990E-01   1.000E-03  -5.709E-04
 710  7.30357820   0.765   0.84062   3.98177   7.27821   2.01355   0.11018   9.990E-01   1.000E-03  -5.681E-04
 711  7.30461494   0.765   0.84063   3.98177   7.27821   2.01356   0.11018   9.990E-01   1.000E-03  -5.653E-04
 712  7.30564921   0.765   0.84064   3.98177   7.27821   2.01356   0.11018   9.990E-01   1.000E-03  -5.624E-04
 713  7.30668102   0.765   0.84065   3.98177   7.27822   2.01357   0.11018   9.990E-01   1.000E-03  -5.596E-04
 714  7.30771039   0.765   0.84066   3.98177   7.27822   2.01357   0.11018   9.990E-01   1.000E-03  -5.568E-04
 715  7.30873733   0.765   0.84068   3.98177   7.27822   2.01358   0.11018   9.990E-01   1.000E-03  -5.539E-04
 716  7.30976184   0.765   0.84069   3.98177   7.27822   2.01358   0.11018   9.990E-01   1.000E-03  -5.511E-04
 717  7.31078394   0.765   0.84070   3.98178   7.27822   2.01359   0.11018   9.990E-01   1.000E-03  -5.483E-04
 718  7.31180364   0.765   0.84071   3.98178   7.27822   2.01359   0.11018   9.990E-01   1.000E-03  -5.454E-04
 719  7.31282095   0.765   0.84073   3.98178   7.27822   2.01360   0.11018   9.990E-01   1.000E-03  -5.426E-04
 720  7.31383589   0.765   0.84074   3.98178   7.27823   2.01361   0.11018   9.990E-01   1.000E-03  -5.398E-04
 721  7.31484846   0.765   0.84075   3.98178   7.27823   2.01361   0.11018   9.990E-01   1.000E-03  -5.369E-04
 722  7.31585867   0.765   0.84076   3.98178   7.27823   2.01362   0.11018   9.990E-01   1.000E-03  -5.341E-04
 723  7.31686654   0.765   0.84078   3.98178   7.27823   2.01362   0.11018   9.990E-01   1.000E-03  -5.313E-04
 724  7.31787207   0.765   0.84079   3.98178   7.27823   2.01363   0.11018   9.990E-01   1.000E-03  -5.285E-04
 725  7.31887528   0.765   0.84080   3.98178   7.27823   2.01363   0.11018   9.990E-01   1.000E-03  -5.256E-04
 726  7.31987618   0.765   0.84081   3.98178   7.27823   2.01364   0.11018   9.990E-01   1.000E-03  -5.228E-04
 727  7.32087478   0.765   0.84083   3.98178   7.27823   2.01364   0.11018   9.990E-01   1.000E-03  -5.200E-04
 728  7.32187109   0.765   0.84084   3.98178   7.27824   2.01365   0.11018   9.990E-01   1.000E-03  -5.171E-04
 729  7.32286512   0.765   0.84085   3.98178   7.27824   2.01365   0.11018   9.990E-01   1.000E-03  -5.143E-04
 730  7.32385688   0.765   0.84086   3.98178   7.27824   2.01366   0.11018   9.990E-01   1.000E-03  -5.115E-04
 731  7.32484637   0.765   0.84088   3.98178   7.27824   2.01366   0.11018   9.990E-01   1.000E-03  -5.086E-04
 732  7.32583362   0.765   0.84089   3.98178   7.27824   2.01367   0.11018   9.990E-01   1.000E-03  -5.058E-04
 733  7.32681863   0.765   0.84090   3.98178   7.27824   2.01367   0.11018   9.990E-01   1.000E-03  -5.030E-04
 734  7.32780141   0.765   0.84091   3.98178   7.27824   2.01368   0.11018   9.990E-01   1.000E-03  -5.001E-04
 735  7.32878197   0.765   0.84093   3.98178   7.27825   2.01368   0.11018   9.990E-01   1.000E-03  -4.973E-04
 736  7.32976033   0.765   0.84094   3.98179   7.27825   2.01369   0.11018   9.990E-01   1.000E-03  -4.945E-04
 737  7.33073648   0.765   0.84095   3.98179   7.27825   2.01369   0.11018   9.990E-01   1.000E-03  -4.916E-04
 738  7.33171045   0.765   0.84096   3.98179   7.27825   2.01370   0.11018   9.990E-01   1.000E-03  -4.888E-04
 739  7.33268223   0.765   0.84098   3.98179   7.27825   2.01370   0.11018   9.990E-01   1.000E-03  -4.860E-04
 740  7.33365185   0.765   0.84099   3.98179   7.27825   2.01371   0.11018   9.990E-01   1.000E-03  -4.831E-04
 741  7.33461930   0.765   0.84100   3.98179   7.27825   2.01372   0.11018   9.990E-01   1.000E-03  -4.803E-04
 742  7.33558461   0.765   0.84101   3.98179   7.27826   2.01372   0.11018   9.990E-01   1.000E-03  -4.775E-04
 743  7.33654777   0.765   0.84103   3.98179   7.27826   2.01373   0.11018   9.990E-01   1.000E-03  -4.746E-04
 744  7.33750880   0.765   0.84104   3.98179   7.27826   2.01373   0.11018   9.990E-01   1.000E-03  -4.718E-04
 745  7.33846771   0.765   0.84105   3.98179   7.27826   2.01374   0.11018   9.990E-01   1.000E-03  -4.690E-04
 746  7.33942451   0.765   0.84106   3.98179   7.27826   2.01374   0.11018   9.990E-01   1.000E-03  -4.667E-04
 747  7.34037921   0.765   0.84107   3.98179   7.27826   2.01375   0.11018   9.990E-01   1.000E-03  -4.655E-04
 748  7.34133181   0.765   0.84108   3.98179   7.27826   2.01375   0.11018   9.990E-01   1.000E-03  -4.644E-04
 749  7.34228233   0.765   0.84109   3.98179   7.27827   2.01376   0.11018   9.990E-01   1.000E-03  -4.633E-04
 750  7.34323077   0.765   0.84110   3.98179   7.27827   2.01376   0.11018   9.990E-01   1.000E-03  -4.622E-04
 751  7.34417714   0.765   0.84111   3.98179   7.27827   2.01377   0.11018   9.990E-01   1.000E-03  -4.611E-04
 752  7.34512145   0.765   0.84112   3.98179   7.27827   2.01378   0.11018   9.990E-01   1.000E-03  -4.599E-04
 753  7.34606372   0.765   0.84113   3.98179   7.27827   2.01378   0.11018   9.990E-01   1.000E-03  -4.588E-04
 754  7.34700395   0.765   0.84114   3.98179   7.27828   2.01379   0.11018   9.990E-01   1.000E-03  -4.577E-04
 755  7.34794214   0.765   0.84115   3.98179   7.27828   2.01379   0.11018   9.990E-01   1.000E-03  -4.566E-04
 756  7.34887832   0.765   0.84116   3.98179   7.27828   2.01380   0.11018   9.990E-01   1.000E-03  -4.555E-04
 757  7.34981248   0.765   0.84117   3.98180   7.27828   2.01380   0.11018   9.990E-01   1.000E-03  -4.543E-04
 758  7.35074463   0.765   0.84118   3.98180   7.27828   2.01381   0.11018   9.990E-01   1.000E-03  -4.532E-04
 759  7.35167479   0.765   0.84119   3.98180   7.27829   2.01381   0.11018   9.990E-01   1.000E-03  -4.521E-04
 760  7.35260296   0.765   0.84120   3.98180   7.27829   2.01382   0.11018   9.990E-01   1.000E-03  -4.510E-04
 761  7.35352915   0.765   0.84121   3.98180   7.27829   2.01383   0.11018   9.990E-01   1.000E-03  -4.499E-04
 762  7.35445337   0.765   0.84122   3.98180   7.27829   2.01383   0.11018   9.990E-01   1.000E-03  -4.488E-04
 763  7.35537563   0.765   0.84123   3.98180   7.27829   2.01384   0.11018   9.990E-01   1.000E-03  -4.476E-04
 764  7.35629593   0.765   0.84124   3.98180   7.27830   2.01384   0.11018   9.990E-01   1.000E-03  -4.465E-04
 765  7.35721429   0.765   0.84125   3.98180   7.27830   2.01385   0.11018   9.990E-01   1.000E-03  -4.454E-04
 766  7.35813071   0.765   0.84126   3.98180   7.27830   2.01385   0.11018   9.990E-01   1.000E-03  -4.443E-04
 767  7.35904520   0.765   0.84127   3.98180   7.27830   2.01386   0.11018   9.990E-01   1.000E-03  -4.432E-04
 768  7.35995776   0.765   0.84128   3.98180   7.27830   2.01386   0.11018   9.990E-01   1.000E-03  -4.420E-04
 769  7.36086842   0.765   0.84129   3.98180   7.27830   2.01387   0.11018   9.990E-01   1.000E-03  -4.409E-04
 770  7.36177717   0.765   0.84130   3.98180   7.27831   2.01388   0.11018   9.990E-01   1.000E-03  -4.398E-04
 771  7.36268402   0.765   0.84131   3.98180   7.27831   2.01388   0.11018   9.990E-01   1.000E-03  -4.387E-04
 772  7.36358898   0.765   0.84132   3.98180   7.27831   2.01389   0.11018   9.990E-01   1.000E-03  -4.376E-04
 773  7.36449206   0.764   0.84133   3.98180   7.27831   2.01389   0.11018   9.990E-01   1.000E-03  -4.364E-04
 774  7.36539327   0.764   0.84134   3.98180   7.27831   2.01390   0.11018   9.990E-01   1.000E-03  -4.353E-04
 775  7.36629260   0.764   0.84135   3.98180   7.27832   2.01390   0.11018   9.990E-01   1.000E-03  -4.342E-04
 776  7.36719009   0.764   0.84136   3.98180   7.27832   2.01391   0.11018   9.990E-01   1.000E-03  -4.331E-04
 777  7.36808572   0.764   0.84137   3.98181   7.27832   2.01391   0.11018   9.990E-01   1.000E-03  -4.320E-04
 778  7.36897950   0.764   0.84138   3.98181   7.27832   2.01392   0.11018   9.990E-01   1.000E-03  -4.308E-04
 779  7.36987145   0.764   0.84139   3.98181   7.27832   2.01393   0.11018   9.990E-01   1.000E-03  -4.297E-04
 780  7.37076158   0.764   0.84140   3.98181   7.27833   2.01393   0.11018   9.990E-01   1.000E-03  -4.286E-04
 781  7.37164988   0.764   0.84141   3.98181   7.27833   2.01394   0.11018   9.990E-01   1.000E-03  -4.275E-04
 782  7.37253637   0.764   0.84142   3.98181   7.27833   2.01394   0.11018   9.990E-01   1.000E-03  -4.264E-04
 783  7.37342105   0.764   0.84143   3.98181   7.27833   2.01395   0.11018   9.990E-01   1.000E-03  -4.253E-04
 784  7.37430394   0.764   0.84144   3.98181   7.27833   2.01395   0.11018   9.990E-01   1.000E-03  -4.241E-04
 785  7.37518503   0.764   0.84145   3.98181   7.27834   2.01396   0.11018   9.990E-01   1.000E-03  -4.230E-04
 786  7.37606434   0.764   0.84146   3.98181   7.27834   2.01396   0.11018   9.990E-01   1.000E-03  -4.219E-04
 787  7.37694187   0.764   0.84147   3.98181   7.27834   2.01397   0.11018   9.990E-01   1.000E-03  -4.208E-04
 788  7.37781764   0.764   0.84148   3.98181   7.27834   2.01398   0.11018   9.990E-01   1.000E-03  -4.197E-04
 789  7.37869164   0.764   0.84149   3.98181   7.27834   2.01398   0.11018   9.990E-01   1.000E-03  -4.185E-04
 790  7.37956388   0.764   0.84150   3.98181   7.27835   2.01399   0.11018   9.990E-01   1.000E-03  -4.174E-04
 791  7.38043438   0.764   0.84151   3.98181   7.27835   2.01399   0.11018   9.990E-01   1.000E-03  -4.163E-04
 792  7.38130314   0.764   0.84152   3.98181   7.27835   2.01400   0.11018   9.990E-01   1.000E-03  -4.152E-04
 793  7.38217016   0.764   0.84153   3.98181   7.27835   2.01400   0.11018   9.990E-01   1.000E-03  -4.141E-04
 794  7.38303545   0.764   0.84154   3.98181   7.27835   2.01401   0.11018   9.990E-01   1.000E-03  -4.129E-04
 795  7.38389903   0.764   0.84155   3.98181   7.27835   2.01401   0.11018   9.990E-01   1.000E-03  -4.118E-04
 796  7.38476088   0.764   0.84156   3.98181   7.27836   2.01402   0.11018   9.990E-01   1.000E-03  -4.107E-04
 797  7.38562104   0.764   0.84157   3.98181   7.27836   2.01403   0.11018   9.990E-01   1.000E-03  -4.096E-04
 798  7.38647949   0.764   0.84158   3.98182   7.27836   2.01403   0.11018   9.990E-01   1.000E-03  -4.085E-04
 799  7.38733625   0.764   0.84159   3.98182   7.27836   2.01404   0.11018   9.990E-01   1.000E-03  -4.073E-04
 800  7.38819132   0.764   0.84160   3.98182   7.27836   2.01404   0.11018   9.990E-01   1.000E-03  -4.062E-04
 801  7.38904471   0.764   0.84161   3.98182   7.27837   2.01405   0.11018   9.990E-01   1.000E-03  -4.051E-04
 802  7.38989643   0.764   0.84162   3.98182   7.27837   2.01405   0.11018   9.990E-01   1.000E-03  -4.040E-04
 803  7.39074648   0.764   0.84163   3.98182   7.27837   2.01406   0.11018   9.990E-01   1.000E-03  -4.029E-04
 804  7.39159487   0.764   0.84164   3.98182   7.27837   2.01406   0.11018   9.990E-01   1.000E-03  -4.017E-04
 805  7.39244161   0.764   0.84165   3.98182   7.27837   2.01407   0.11018   9.990E-01   1.000E-03  -4.006E-04
 806  7.39328670   0.764   0.84166   3.98182   7.27838   2.01408   0.11018   9.990E-01   1.000E-03  -3.995E-04
 807  7.39413015   0.764   0.84167   3.98182   7.27838   2.01408   0.11018   9.990E-01   1.000E-03  -3.984E-04
 808  7.39497196   0.764   0.84168   3.98182   7.27838   2.01409   0.11018   9.990E-01   1.000E-03  -3.973E-04
 809  7.39581214   0.764   0.84169   3.98182   7.27838   2.01409   0.11018   9.990E-01   1.000E-03  -3.962E-04
 810  7.39665071   0.764   0.84170   3.98182   7.27838   2.01410   0.11018   9.990E-01   1.000E-03  -3.950E-04
 811  7.39748765   0.764   0.84171   3.98182   7.27839   2.01410   0.11018   9.990E-01   1.000E-03  -3.939E-04
 812  7.39832299   0.764   0.84172   3.98182   7.27839   2.01411   0.11018   9.990E-01   1.000E-03  -3.928E-04
 813  7.39915672   0.764   0.84173   3.98182   7.27839   2.01411   0.11018   9.990E-01   1.000E-03  -3.917E-04
 814  7.39998886   0.764   0.84174   3.98182   7.27839   2.01412   0.11018   9.990E-01   1.000E-03  -3.906E-04
 815  7.40081940   0.764   0.84175   3.98182   7.27839   2.01413   0.11018   9.990E-01   1.000E-03  -3.894E-04
 816  7.40164836   0.764   0.84176   3.98182   7.27840   2.01413   0.11018   9.990E-01   1.000E-03  -3.883E-04
 817  7.40247574   0.764   0.84177   3.98182   7.27840   2.01414   0.11018   9.990E-01   1.000E-03  -3.872E-04
 818  7.40330154   0.764   0.84178   3.98182   7.27840   2.01414   0.11018   9.990E-01   1.000E-03  -3.861E-04
 819  7.40412578   0.764   0.84179   3.98183   7.27840   2.01415   0.11018   9.990E-01   1.000E-03  -3.850E-04
 820  7.40494846   0.764   0.84180   3.98183   7.27840   2.01415   0.11018   9.990E-01   1.000E-03  -3.838E-04
 821  7.40576958   0.764   0.84181   3.98183   7.27840   2.01416   0.11018   9.990E-01   1.000E-03  -3.827E-04
 822  7.40658915   0.764   0.84182   3.98183   7.27841   2.01416   0.11018   9.990E-01   1.000E-03  -3.816E-04
 823  7.40740718   0.764   0.84183   3.98183   7.27841   2.01417   0.11018   9.990E-01   1.000E-03  -3.805E-04
 824  7.40822367   0.764   0.84184   3.98183   7.27841   2.01418   0.11018   9.990E-01   1.000E-03  -3.794E-04
 825  7.40903863   0.764   0.84185   3.98183   7.27841   2.01418   0.11018   9.990E-01   1.000E-03  -3.782E-04
 826  7.40985206   0.764   0.84187   3.98183   7.27841   2.01419   0.11018   9.990E-01   1.000E-03  -3.771E-04
 827  7.41066397   0.764   0.84188   3.98183   7.27842   2.01419   0.11018   9.990E-01   1.000E-03  -3.760E-04
 828  7.41147437   0.764   0.84189   3.98183   7.27842   2.01420   0.11018   9.990E-01   1.000E-03  -3.749E-04
 829  7.41228326   0.764   0.84190   3.98183   7.27842   2.01420   0.11018   9.990E-01   1.000E-03  -3.738E-04
 830  7.41309064   0.764   0.84191   3.98183   7.27842   2.01421   0.11018   9.990E-01   1.000E-03  -3.726E-04
 831  7.41389652   0.764   0.84192   3.98183   7.27842   2.01421   0.11018   9.990E-01   1.000E-03  -3.715E-04
 832  7.41470092   0.764   0.84193   3.98183   7.27843   2.01422   0.11018   9.990E-01   1.000E-03  -3.704E-04
 833  7.41550382   0.764   0.84194   3.98183   7.27843   2.01423   0.11018   9.990E-01   1.000E-03  -3.693E-04
 834  7.41630524   0.764   0.84195   3.98183   7.27843   2.01423   0.11018   9.990E-01   1.000E-03  -3.682E-04
 835  7.41710519   0.764   0.84196   3.98183   7.27843   2.01424   0.11018   9.990E-01   1.000E-03  -3.671E-04
 836  7.41790367   0.764   0.84197   3.98183   7.27843   2.01424   0.11018   9.990E-01   1.000E-03  -3.659E-04
 837  7.41870068   0.764   0.84198   3.98183   7.27844   2.01425   0.11018   9.990E-01   1.000E-03  -3.648E-04
 838  7.41949623   0.764   0.84199   3.98183   7.27844   2.01425   0.11018   9.990E-01   1.000E-03  -3.637E-04
 839  7.42029033   0.764   0.84200   3.98183   7.27844   2.01426   0.11018   9.990E-01   1.000E-03  -3.626E-04
 840  7.42108297   0.764   0.84201   3.98184   7.27844   2.01426   0.11018   9.990E-01   1.000E-03  -3.615E-04
 841  7.42187418   0.764   0.84202   3.98184   7.27844   2.01427   0.11018   9.990E-01   1.000E-03  -3.603E-04
 842  7.42266394   0.763   0.84203   3.98184   7.27845   2.01428   0.11018   9.990E-01   1.000E-03  -3.592E-04
 843  7.42345227   0.763   0.84204   3.98184   7.27845   2.01428   0.11018   9.990E-01   1.000E-03  -3.581E-04
 844  7.42423917   0.763   0.84205   3.98184   7.27845   2.01429   0.11018   9.990E-01   1.000E-03  -3.570E-04
 845  7.42502465   0.763   0.84206   3.98184   7.27845   2.01429   0.11018   9.990E-01   1.000E-03  -3.559E-04
 846  7.42580871   0.763   0.84207   3.98184   7.27845   2.01430   0.11018   9.990E-01   1.000E-03  -3.547E-04
 847  7.42659136   0.763   0.84208   3.98184   7.27845   2.01430   0.11018   9.990E-01   1.000E-03  -3.536E-04
 848  7.42737260   0.763   0.84209   3.98184   7.27846   2.01431   0.11018   9.990E-01   1.000E-03  -3.525E-04
 849  7.42815244   0.763   0.84210   3.98184   7.27846   2.01431   0.11018   9.990E-01   1.000E-03  -3.514E-04
 850  7.42893088   0.763   0.84211   3.98184   7.27846   2.01432   0.11018   9.990E-01   1.000E-03  -3.503E-04
 851  7.42970793   0.763   0.84212   3.98184   7.27846   2.01433   0.11018   9.990E-01   1.000E-03  -3.491E-04
 852  7.43048359   0.763   0.84213   3.98184   7.27846   2.01433   0.11018   9.990E-01   1.000E-03  -3.480E-04
 853  7.43125786   0.763   0.84214   3.98184   7.27847   2.01434   0.11018   9.990E-01   1.000E-03  -3.469E-04
 854  7.43203076   0.763   0.84215   3.98184   7.27847   2.01434   0.11018   9.990E-01   1.000E-03  -3.458E-04
 855  7.43280229   0.763   0.84216   3.98184   7.27847   2.01435   0.11018   9.990E-01   1.000E-03  -3.447E-04
 856  7.43357244   0.763   0.84217   3.98184   7.27847   2.01435   0.11018   9.990E-01   1.000E-03  -3.436E-04
 857  7.43434124   0.763   0.84218   3.98184   7.27847   2.01436   0.11018   9.990E-01   1.000E-03  -3.424E-04
 858  7.43510867   0.763   0.84219   3.98184   7.27848   2.01436   0.11018   9.990E-01   1.000E-03  -3.413E-04
 859  7.43587475   0.763   0.84220   3.98184   7.27848   2.01437   0.11018   9.990E-01   1.000E-03  -3.402E-04
 860  7.43663948   0.763   0.84221   3.98184   7.27848   2.01438   0.11018   9.990E-01   1.000E-03  -3.391E-04
 861  7.43740287   0.763   0.84222   3.98185   7.27848   2.01438   0.11018   9.990E-01   1.000E-03  -3.380E-04
 862  7.43816492   0.763   0.84223   3.98185   7.27848   2.01439   0.11018   9.990E-01   1.000E-03  -3.368E-04
 863  7.43892563   0.763   0.84224   3.98185   7.27849   2.01439   0.11018   9.990E-01   1.000E-03  -3.357E-04
 864  7.43968502   0.763   0.84225   3.98185   7.27849   2.01440   0.11018   9.990E-01   1.000E-03  -3.346E-04
 865  7.44044308   0.763   0.84226   3.98185   7.27849   2.01440   0.11018   9.990E-01   1.000E-03  -3.335E-04
 866  7.44119981   0.763   0.84227   3.98185   7.27849   2.01441   0.11018   9.990E-01   1.000E-03  -3.324E-04
 867  7.44195523   0.763   0.84228   3.98185   7.27849   2.01441   0.11018   9.990E-01   1.000E-03  -3.312E-04
 868  7.44270934   0.763   0.84229   3.98185   7.27850   2.01442   0.11018   9.990E-01   1.000E-03  -3.301E-04
 869  7.44346215   0.763   0.84230   3.98185   7.27850   2.01443   0.11018   9.990E-01   1.000E-03  -3.290E-04
 870  7.44421365   0.763   0.84231   3.98185   7.27850   2.01443   0.11018   9.990E-01   1.000E-03  -3.279E-04
 871  7.44496385   0.763   0.84232   3.98185   7.27850   2.01444   0.11018   9.990E-01   1.000E-03  -3.268E-04
 872  7.44571275   0.763   0.84233   3.98185   7.27850   2.01444   0.11018   9.990E-01   1.000E-03  -3.256E-04
 873  7.44646037   0.763   0.84234   3.98185   7.27850   2.01445   0.11018   9.990E-01   1.000E-03  -3.245E-04
 874  7.44720671   0.763   0.84235   3.98185   7.27851   2.01445   0.11018   9.990E-01   1.000E-03  -3.234E-04
 875  7.44795176   0.763   0.84236   3.98185   7.27851   2.01446   0.11018   9.990E-01   1.000E-03  -3.223E-04
 876  7.44869554   0.763   0.84237   3.98185   7.27851   2.01446   0.11018   9.990E-01   1.000E-03  -3.212E-04
 877  7.44943804   0.763   0.84238   3.98185   7.27851   2.01447   0.11018   9.990E-01   1.000E-03  -3.200E-04
 878  7.45017928   0.763   0.84239   3.98185   7.27851   2.01448   0.11018   9.990E-01   1.000E-03  -3.189E-04
 879  7.45091926   0.763   0.84240   3.98185   7.27852   2.01448   0.11018   9.990E-01   1.000E-03  -3.178E-04
 880  7.45165797   0.763   0.84241   3.98185   7.27852   2.01449   0.11018   9.990E-01   1.000E-03  -3.167E-04
 881  7.45239544   0.763   0.84242   3.98186   7.27852   2.01449   0.11018   9.990E-01   1.000E-03  -3.156E-04
 882  7.45313165   0.763   0.84243   3.98186   7.27852   2.01450   0.11018   9.990E-01   1.000E-03  -3.145E-04
 883  7.45386661   0.763   0.84244   3.98186   7.27852   2.01450   0.11018   9.990E-01   1.000E-03  -3.133E-04
 884  7.45460034   0.763   0.84245   3.98186   7.27853   2.01451   0.11018   9.990E-01   1.000E-03  -3.122E-04
 885  7.45533283   0.763   0.84246   3.98186   7.27853   2.01451   0.11018   9.990E-01   1.000E-03  -3.111E-04
 886  7.45606408   0.763   0.84247   3.98186   7.27853   2.01452   0.11018   9.990E-01   1.000E-03  -3.100E-04
 887  7.45679411   0.763   0.84248   3.98186   7.27853   2.01453   0.11018   9.990E-01   1.000E-03  -3.089E-04
 888  7.45752290   0.763   0.84249   3.98186   7.27853   2.01453   0.11018   9.990E-01   1.000E-03  -3.077E-04
 889  7.45825048   0.763   0.84250   3.98186   7.27854   2.01454   0.11018   9.990E-01   1.000E-03  -3.066E-04
 890  7.45897684   0.763   0.84251   3.98186   7.27854   2.01454   0.11018   9.990E-01   1.000E-03  -3.055E-04
 891  7.45970199   0.763   0.84252   3.98186   7.27854   2.01455   0.11018   9.990E-01   1.000E-03  -3.044E-04
 892  7.46042593   0.763   0.84253   3.98186   7.27854   2.01455   0.11016   9.990E-01   1.000E-03  -3.036E-04
 893  7.46114867   0.763   0.84253   3.98186   7.27854   2.01456   0.11013   9.990E-01   1.000E-03  -3.031E-04
 894  7.46187020   0.763   0.84254   3.98186   7.27855   2.01457   0.11010   9.990E-01   1.000E-03  -3.025E-04
 895  7.46259054   0.763   0.84255   3.98186   7.27855   2.01457   0.11007   9.990E-01   1.000E-03  -3.020E-04
 896  7.46330969   0.763   0.84256   3.98186   7.27855   2.01458   0.11004   9.990E-01   1.000E-03  -3.014E-04
 897  7.46402764   0.763   0.84257   3.98186   7.27855   2.01458   0.11001   9.990E-01   1.000E-03  -3.009E-04
 898  7.46474441   0.763   0.84258   3.98186   7.27856   2.01459   0.10998   9.990E-01   1.000E-03  -3.003E-04
 899  7.46546000   0.763   0.84259   3.98186   7.27856   2.01460   0.10995   9.990E-01   1.000E-03  -2.997E-04
 900  7.46617442   0.763   0.84260   3.98186   7.27856   2.01460   0.10992   9.990E-01   1.000E-03  -2.992E-04
 901  7.46688766   0.763   0.84260   3.98186   7.27856   2.01461   0.10989   9.990E-01   1.000E-03  -2.986E-04
 902  7.46759973   0.763   0.84261   3.98187   7.27856   2.01461   0.10986   9.990E-01   1.000E-03  -2.981E-04
 903  7.46831063   0.763   0.84262   3.98187   7.27857   2.01462   0.10983   9.990E-01   1.000E-03  -2.975E-04
 904  7.46902037   0.763   0.84263   3.98187   7.27857   2.01462   0.10980   9.990E-01   1.000E-03  -2.970E-04
 905  7.46972896   0.763   0.84264   3.98187   7.27857   2.01463   0.10977   9.990E-01   1.000E-03  -2.964E-04
 906  7.47043639   0.763   0.84265   3.98187   7.27857   2.01464   0.10974   9.990E-01   1.000E-03  -2.958E-04
 907  7.47114267   0.763   0.84266   3.98187   7.27858   2.01464   0.10971   9.990E-01   1.000E-03  -2.953E-04
 908  7.47184780   0.763   0.84266   3.98187   7.27858   2.01465   0.10968   9.990E-01   1.000E-03  -2.947E-04
 909  7.47255179   0.763   0.84267   3.98187   7.27858   2.01465   0.10965   9.990E-01   1.000E-03  -2.942E-04
 910  7.47325465   0.763   0.84268   3.98187   7.27858   2.01466   0.10962   9.990E-01   1.000E-03  -2.936E-04
 911  7.47395636   0.762   0.84269   3.98187   7.27859   2.01467   0.10959   9.990E-01   1.000E-03  -2.931E-04
 912  7.47465695   0.762   0.84270   3.98187   7.27859   2.01467   0.10956   9.990E-01   1.000E-03  -2.925E-04
 913  7.47535640   0.762   0.84271   3.98187   7.27859   2.01468   0.10953   9.990E-01   1.000E-03  -2.920E-04
 914  7.47605473   0.762   0.84272   3.98187   7.27859   2.01468   0.10950   9.990E-01   1.000E-03  -2.914E-04
 915  7.47675194   0.762   0.84273   3.98187   7.27859   2.01469   0.10947   9.990E-01   1.000E-03  -2.908E-04
 916  7.47744803   0.762   0.84273   3.98187   7.27860   2.01470   0.10945   9.990E-01   1.000E-03  -2.903E-04
 917  7.47814301   0.762   0.84274   3.98187   7.27860   2.01470   0.10942   9.990E-01   1.000E-03  -2.897E-04
 918  7.47883688   0.762   0.84275   3.98187   7.27860   2.01471   0.10939   9.990E-01   1.000E-03  -2.892E-04
 919  7.47952964   0.762   0.84276   3.98187   7.27860   2.01471   0.10936   9.990E-01   1.000E-03  -2.886E-04
 920  7.48022130   0.762   0.84277   3.98187   7.27861   2.01472   0.10933   9.990E-01   1.000E-03  -2.881E-04
 921  7.48091185   0.762   0.84278   3.98187   7.27861   2.01473   0.10930   9.990E-01   1.000E-03  -2.875E-04
 922  7.48160132   0.762   0.84279   3.98188   7.27861   2.01473   0.10927   9.990E-01   1.000E-03  -2.870E-04
 923  7.48228968   0.762   0.84279   3.98188   7.27861   2.01474   0.10924   9.990E-01   1.000E-03  -2.864E-04
 924  7.48297696   0.762   0.84280   3.98188   7.27862   2.01474   0.10921   9.990E-01   1.000E-03  -2.858E-04
 925  7.48366316   0.762   0.84281   3.98188   7.27862   2.01475   0.10918   9.990E-01   1.000E-03  -2.853E-04
 926  7.48434827   0.762   0.84282   3.98188   7.27862   2.01475   0.10915   9.990E-01   1.000E-03  -2.847E-04
 927  7.48503230   0.762   0.84283   3.98188   7.27862   2.01476   0.10912   9.990E-01   1.000E-03  -2.842E-04
 928  7.48571526   0.762   0.84284   3.98188   7.27862   2.01477   0.10909   9.990E-01   1.000E-03  -2.836E-04
 929  7.48639714   0.762   0.84285   3.98188   7.27863   2.01477   0.10906   9.990E-01   1.000E-03  -2.831E-04
 930  7.48707795   0.762   0.84285   3.98188   7.27863   2.01478   0.10903   9.990E-01   1.000E-03  -2.825E-04
 931  7.48775770   0.762   0.84286   3.98188   7.27863   2.01478   0.10900   9.990E-01   1.000E-03  -2.820E-04
 932  7.48843639   0.762   0.84287   3.98188   7.27863   2.01479   0.10897   9.990E-01   1.000E-03  -2.814E-04
 933  7.48911402   0.762   0.84288   3.98188   7.27864   2.01480   0.10894   9.990E-01   1.000E-03  -2.808E-04
 934  7.48979059   0.762   0.84289   3.98188   7.27864   2.01480   0.10891   9.990E-01   1.000E-03  -2.803E-04
 935  7.49046611   0.762   0.84290   3.98188   7.27864   2.01481   0.10888   9.990E-01   1.000E-03  -2.797E-04
 936  7.49114058   0.762   0.84291   3.98188   7.27864   2.01481   0.10885   9.990E-01   1.000E-03  -2.792E-04
 937  7.49181401   0.762   0.84292   3.98188   7.27865   2.01482   0.10882   9.990E-01   1.000E-03  -2.786E-04
 938  7.49248639   0.762   0.84292   3.98188   7.27865   2.01483   0.10879   9.990E-01   1.000E-03  -2.781E-04
 939  7.49315773   0.762   0.84293   3.98188   7.27865   2.01483   0.10876   9.990E-01   1.000E-03  -2.775E-04
 940  7.49382804   0.762   0.84294   3.98188   7.27865   2.01484   0.10873   9.990E-01   1.000E-03  -2.769E-04
 941  7.49449731   0.762   0.84295   3.98188   7.27865   2.01484   0.10870   9.990E-01   1.000E-03  -2.764E-04
 942  7.49516556   0.762   0.84296   3.98189   7.27866   2.01485   0.10867   9.990E-01   1.000E-03  -2.758E-04
 943  7.49583278   0.762   0.84297   3.98189   7.27866   2.01486   0.10864   9.990E-01   1.000E-03  -2.753E-04
 944  7.49649897   0.762   0.84298   3.98189   7.27866   2.01486   0.10861   9.990E-01   1.000E-03  -2.747E-04
 945  7.49716414   0.762   0.84298   3.98189   7.27866   2.01487   0.10858   9.990E-01   1.000E-03  -2.742E-04
 946  7.49782830   0.762   0.84299   3.98189   7.27867   2.01487   0.10855   9.990E-01   1.000E-03  -2.736E-04
 947  7.49849144   0.762   0.84300   3.98189   7.27867   2.01488   0.10852   9.990E-01   1.000E-03  -2.731E-04
 948  7.49915357   0.762   0.84301   3.98189   7.27867   2.01488   0.10849   9.990E-01   1.000E-03  -2.725E-04
 949  7.49981470   0.762   0.84302   3.98189   7.27867   2.01489   0.10846   9.990E-01   1.000E-03  -2.719E-04
 950  7.50047481   0.762   0.84303   3.98189   7.27868   2.01490   0.10843   9.990E-01   1.000E-03  -2.714E-04
 951  7.50113393   0.762   0.84304   3.98189   7.27868   2.01490   0.10840   9.990E-01   1.000E-03  -2.708E-04
 952  7.50179205   0.762   0.84305   3.98189   7.27868   2.01491   0.10837   9.990E-01   1.000E-03  -2.703E-04
 953  7.50244917   0.762   0.84305   3.98189   7.27868   2.01491   0.10834   9.990E-01   1.000E-03  -2.697E-04
 954  7.50310530   0.762   0.84306   3.98189   7.27868   2.01492   0.10831   9.990E-01   1.000E-03  -2.692E-04
 955  7.50376044   0.762   0.84307   3.98189   7.27869   2.01493   0.10828   9.990E-01   1.000E-03  -2.686E-04
 956  7.50441459   0.762   0.84308   3.98189   7.27869   2.01493   0.10825   9.990E-01   1.000E-03  -2.681E-04
 957  7.50506776   0.762   0.84309   3.98189   7.27869   2.01494   0.10822   9.990E-01   1.000E-03  -2.675E-04
 958  7.50571995   0.762   0.84310   3.98189   7.27869   2.01494   0.10819   9.990E-01   1.000E-03  -2.669E-04
 959  7.50637116   0.762   0.84311   3.98189   7.27870   2.01495   0.10816   9.990E-01   1.000E-03  -2.664E-04
 960  7.50702139   0.762   0.84311   3.98189   7.27870   2.01496   0.10813   9.990E-01   1.000E-03  -2.658E-04
 961  7.50767066   0.762   0.84312   3.98189   7.27870   2.01496   0.10810   9.990E-01   1.000E-03  -2.653E-04
 962  7.50831895   0.762   0.84313   3.98190   7.27870   2.01497   0.10807   9.990E-01   1.000E-03  -2.647E-04
 963  7.50896628   0.762   0.84314   3.98190   7.27871   2.01497   0.10804   9.990E-01   1.000E-03  -2.642E-04
 964  7.50961264   0.762   0.84315   3.98190   7.27871   2.01498   0.10801   9.990E-01   1.000E-03  -2.636E-04
 965  7.51025805   0.762   0.84316   3.98190   7.27871   2.01499   0.10798   9.990E-01   1.000E-03  -2.630E-04
 966  7.51090249   0.762   0.84317   3.98190   7.27871   2.01499   0.10796   9.990E-01   1.000E-03  -2.625E-04
 967  7.51154598   0.762   0.84318   3.98190   7.27871   2.01500   0.10793   9.990E-01   1.000E-03  -2.619E-04
 968  7.51218852   0.762   0.84318   3.98190   7.27872   2.01500   0.10790   9.990E-01   1.000E-03  -2.614E-04
 969  7.51283011   0.762   0.84319   3.98190   7.27872   2.01501   0.10787   9.990E-01   1.000E-03  -2.608E-04
 970  7.51347075   0.762   0.84320   3.98190   7.27872   2.01501   0.10784   9.990E-01   1.000E-03  -2.603E-04
 971  7.51411045   0.762   0.84321   3.98190   7.27872   2.01502   0.10781   9.990E-01   1.000E-03  -2.597E-04
 972  7.51474921   0.762   0.84322   3.98190   7.27873   2.01503   0.10778   9.990E-01   1.000E-03  -2.592E-04
 973  7.51538703   0.762   0.84323   3.98190   7.27873   2.01503   0.10775   9.990E-01   1.000E-03  -2.586E-04
 974  7.51602392   0.762   0.84324   3.98190   7.27873   2.01504   0.10772   9.990E-01   1.000E-03  -2.580E-04
 975  7.51665987   0.762   0.84324   3.98190   7.27873   2.01504   0.10769   9.990E-01   1.000E-03  -2.575E-04
 976  7.51729489   0.762   0.84325   3.98190   7.27874   2.01505   0.10766   9.990E-01   1.000E-03  -2.569E-04
 977  7.51792899   0.762   0.84326   3.98190   7.27874   2.01506   0.10763   9.990E-01   1.000E-03  -2.564E-04
 978  7.51856216   0.762   0.84327   3.98190   7.27874   2.01506   0.10760   9.990E-01   1.000E-03  -2.558E-04
 979  7.51919441   0.762   0.84328   3.98190   7.27874   2.01507   0.10757   9.990E-01   1.000E-03  -2.553E-04
 980  7.51982574   0.762   0.84329   3.98190   7.27874   2.01507   0.10754   9.990E-01   1.000E-03  -2.547E-04
 981  7.52045615   0.762   0.84330   3.98190   7.27875   2.01508   0.10751   9.990E-01   1.000E-03  -2.542E-04
 982  7.52108565   0.761   0.84331   3.98191   7.27875   2.01509   0.10748   9.990E-01   1.000E-03  -2.536E-04
 983  7.52171424   0.761   0.84331   3.98191   7.27875   2.01509   0.10745   9.990E-01   1.000E-03  -2.530E-04
 984  7.52234192   0.761   0.84332   3.98191   7.27875   2.01510   0.10742   9.990E-01   1.000E-03  -2.525E-04
 985  7.52296870   0.761   0.84333   3.98191   7.27876   2.01510   0.10739   9.990E-01   1.000E-03  -2.519E-04
 986  7.52359457   0.761   0.84334   3.98191   7.27876   2.01511   0.10736   9.990E-01   1.000E-03  -2.514E-04
 987  7.52421954   0.761   0.84335   3.98191   7.27876   2.01512   0.10733   9.990E-01   1.000E-03  -2.508E-04
 988  7.52484361   0.761   0.84336   3.98191   7.27876   2.01512   0.10730   9.990E-01   1.000E-03  -2.503E-04
 989  7.52546679   0.761   0.84337   3.98191   7.27877   2.01513   0.10727   9.990E-01   1.000E-03  -2.497E-04
 990  7.52608907   0.761   0.84337   3.98191   7.27877   2.01513   0.10724   9.990E-01   1.000E-03  -2.492E-04
 991  7.52671046   0.761   0.84338   3.98191   7.27877   2.01514   0.10721   9.990E-01   1.000E-03  -2.486E-04
 992  7.52733097   0.761   0.84339   3.98191   7.27877   2.01514   0.10718   9.990E-01   1.000E-03  -2.480E-04
 993  7.52795059   0.761   0.84340   3.98191   7.27877   2.01515   0.10715   9.990E-01   1.000E-03  -2.475E-04
 994  7.52856933   0.761   0.84341   3.98191   7.27878   2.01516   0.10712   9.990E-01   1.000E-03  -2.469E-04
 995  7.52918719   0.761   0.84342   3.98191   7.27878   2.01516   0.10709   9.990E-01   1.000E-03  -2.464E-04
 996  7.52980417   0.761   0.84343   3.98191   7.27878   2.01517   0.10706   9.990E-01   1.000E-03  -2.458E-04
 997  7.53042027   0.761   0.84344   3.98191   7.27878   2.01517   0.10703   9.990E-01   1.000E-03  -2.453E-04
 998  7.53103550   0.761   0.84344   3.98191   7.27879   2.01518   0.10700   9.990E-01   1.000E-03  -2.447E-04
 999  7.53164986   0.761   0.84345   3.98191   7.27879   2.01519   0.10697   9.990E-01   1.000E-03  -2.441E-04
1000  7.53226336   0.761   0.84346   3.98191   7.27879   2.01519   0.10694   9.990E-01   1.000E-03  -2.436E-04
1001  7.53287598   0.761   0.84347   3.98191   7.27879   2.01520   0.10691   9.990E-01   1.000E-03  -2.430E-04
1002  7.53348775   0.761   0.84348   3.98192   7.27879   2.01520   0.10688   9.990E-01   1.000E-03  -2.425E-04
1003  7.53409865   0.761   0.84349   3.98192   7.27880   2.01521   0.10685   9.990E-01   1.000E-03  -2.419E-04
1004  7.53470870   0.761   0.84350   3.98192   7.27880   2.01522   0.10682   9.990E-01   1.000E-03  -2.414E-04
1005  7.53531789   0.761   0.84350   3.98192   7.27880   2.01522   0.10679   9.990E-01   1.000E-03  -2.408E-04
1006  7.53592623   0.761   0.84351   3.98192   7.27880   2.01523   0.10676   9.990E-01   1.000E-03  -2.403E-04
1007  7.53653372   0.761   0.84352   3.98192   7.27881   2.01523   0.10673   9.990E-01   1.000E-03  -2.397E-04
1008  7.53714035   0.761   0.84353   3.98192   7.27881   2.01524   0.10670   9.990E-01   1.000E-03  -2.391E-04
1009  7.53774615   0.761   0.84354   3.98192   7.27881   2.01525   0.10667   9.990E-01   1.000E-03  -2.386E-04
1010  7.53835109   0.761   0.84355   3.98192   7.27881   2.01525   0.10664   9.990E-01   1.000E-03  -2.380E-04
1011  7.53895520   0.761   0.84356   3.98192   7.27882   2.01526   0.10661   9.990E-01   1.000E-03  -2.375E-04
1012  7.53955847   0.761   0.84357   3.98192   7.27882   2.01526   0.10658   9.990E-01   1.000E-03  -2.369E-04
1013  7.54016090   0.761   0.84357   3.98192   7.27882   2.01527   0.10655   9.990E-01   1.000E-03  -2.364E-04
1014  7.54076249   0.761   0.84358   3.98192   7.27882   2.01527   0.10652   9.990E-01   1.000E-03  -2.358E-04
1015  7.54136326   0.761   0.84359   3.98192   7.27882   2.01528   0.10649   9.990E-01   1.000E-03  -2.353E-04
1016  7.54196319   0.761   0.84360   3.98192   7.27883   2.01529   0.10647   9.990E-01   1.000E-03  -2.347E-04
1017  7.54256230   0.761   0.84361   3.98192   7.27883   2.01529   0.10644   9.990E-01   1.000E-03  -2.341E-04
1018  7.54316058   0.761   0.84362   3.98192   7.27883   2.01530   0.10641   9.990E-01   1.000E-03  -2.336E-04
1019  7.54375804   0.761   0.84363   3.98192   7.27883   2.01530   0.10638   9.990E-01   1.000E-03  -2.330E-04
1020  7.54435467   0.761   0.84363   3.98192   7.27884   2.01531   0.10635   9.990E-01   1.000E-03  -2.325E-04
1021  7.54495049   0.761   0.84364   3.98192   7.27884   2.01532   0.10632   9.990E-01   1.000E-03  -2.319E-04
1022  7.54554549   0.761   0.84365   3.98193   7.27884   2.01532   0.10629   9.990E-01   1.000E-03  -2.314E-04
1023  7.54613968   0.761   0.84366   3.98193   7.27884   2.01533   0.10626   9.990E-01   1.000E-03  -2.308E-04
1024  7.54673306   0.761   0.84367   3.98193   7.27885   2.01533   0.10623   9.990E-01   1.000E-03  -2.302E-04
1025  7.54732563   0.761   0.84368   3.98193   7.27885   2.01534   0.10620   9.990E-01   1.000E-03  -2.297E-04
1026  7.54791738   0.761   0.84369   3.98193   7.27885   2.01535   0.10617   9.990E-01   1.000E-03  -2.291E-04
1027  7.54850834   0.761   0.84370   3.98193   7.27885   2.01535   0.10614   9.990E-01   1.000E-03  -2.286E-04
1028  7.54909849   0.761   0.84370   3.98193   7.27885   2.01536   0.10611   9.990E-01   1.000E-03  -2.280E-04
1029  7.54968784   0.761   0.84371   3.98193   7.27886   2.01536   0.10608   9.990E-01   1.000E-03  -2.275E-04
1030  7.55027639   0.761   0.84372   3.98193   7.27886   2.01537   0.10605   9.990E-01   1.000E-03  -2.269E-04
1031  7.55086415   0.761   0.84373   3.98193   7.27886   2.01538   0.10602   9.990E-01   1.000E-03  -2.264E-04
1032  7.55145111   0.761   0.84374   3.98193   7.27886   2.01538   0.10599   9.990E-01   1.000E-03  -2.258E-04
1033  7.55203728   0.761   0.84375   3.98193   7.27887   2.01539   0.10596   9.990E-01   1.000E-03  -2.252E-04
1034  7.55262265   0.761   0.84376   3.98193   7.27887   2.01539   0.10593   9.990E-01   1.000E-03  -2.247E-04
1035  7.55320724   0.761   0.84376   3.98193   7.27887   2.01540   0.10590   9.990E-01   1.000E-03  -2.241E-04
1036  7.55379105   0.761   0.84377   3.98193   7.27887   2.01540   0.10587   9.990E-01   1.000E-03  -2.236E-04
1037  7.55437407   0.761   0.84378   3.98193   7.27888   2.01541   0.10584   9.990E-01   1.000E-03  -2.230E-04
1038  7.55495631   0.761   0.84379   3.98193   7.27888   2.01542   0.10581   9.990E-01   1.000E-03  -2.225E-04
1039  7.55553777   0.761   0.84380   3.98193   7.27888   2.01542   0.10578   9.990E-01   1.000E-03  -2.219E-04
1040  7.55611845   0.761   0.84381   3.98193   7.27888   2.01543   0.10575   9.990E-01   1.000E-03  -2.214E-04
1041  7.55669836   0.761   0.84382   3.98193   7.27888   2.01543   0.10572   9.990E-01   1.000E-03  -2.208E-04
1042  7.55727749   0.761   0.84383   3.98194   7.27889   2.01544   0.10569   9.990E-01   1.000E-03  -2.202E-04
1043  7.55785585   0.761   0.84383   3.98194   7.27889   2.01545   0.10566   9.990E-01   1.000E-03  -2.197E-04
1044  7.55843345   0.761   0.84384   3.98194   7.27889   2.01545   0.10563   9.990E-01   1.000E-03  -2.191E-04
1045  7.55901027   0.761   0.84385   3.98194   7.27889   2.01546   0.10560   9.990E-01   1.000E-03  -2.186E-04
1046  7.55958633   0.761   0.84386   3.98194   7.27890   2.01546   0.10557   9.990E-01   1.000E-03  -2.180E-04
1047  7.56016163   0.761   0.84387   3.98194   7.27890   2.01547   0.10554   9.990E-01   1.000E-03  -2.175E-04
1048  7.56073617   0.761   0.84388   3.98194   7.27890   2.01548   0.10551   9.990E-01   1.000E-03  -2.169E-04
1049  7.56130994   0.761   0.84389   3.98194   7.27890   2.01548   0.10548   9.990E-01   1.000E-03  -2.163E-04
1050  7.56188297   0.761   0.84389   3.98194   7.27891   2.01549   0.10545   9.990E-01   1.000E-03  -2.158E-04
1051  7.56245523   0.761   0.84390   3.98194   7.27891   2.01549   0.10542   9.990E-01   1.000E-03  -2.152E-04
1052  7.56302674   0.760   0.84391   3.98194   7.27891   2.01550   0.10539   9.990E-01   1.000E-03  -2.147E-04
1053  7.56359750   0.760   0.84392   3.98194   7.27891   2.01551   0.10536   9.990E-01   1.000E-03  -2.141E-04
1054  7.56416752   0.760   0.84393   3.98194   7.27891   2.01551   0.10533   9.990E-01   1.000E-03  -2.136E-04
1055  7.56473678   0.760   0.84394   3.98194   7.27892   2.01552   0.10530   9.990E-01   1.000E-03  -2.130E-04
1056  7.56530530   0.760   0.84395   3.98194   7.27892   2.01552   0.10527   9.990E-01   1.000E-03  -2.125E-04
1057  7.56587308   0.760   0.84396   3.98194   7.27892   2.01553   0.10524   9.990E-01   1.000E-03  -2.119E-04
1058  7.56644011   0.760   0.84396   3.98194   7.27892   2.01553   0.10521   9.990E-01   1.000E-03  -2.113E-04
1059  7.56700641   0.760   0.84397   3.98194   7.27893   2.01554   0.10518   9.990E-01   1.000E-03  -2.108E-04
1060  7.56757197   0.760   0.84398   3.98194   7.27893   2.01555   0.10515   9.990E-01   1.000E-03  -2.102E-04
1061  7.56813679   0.760   0.84399   3.98194   7.27893   2.01555   0.10512   9.990E-01   1.000E-03  -2.097E-04
1062  7.56870088   0.760   0.84400   3.98195   7.27893   2.01556   0.10509   9.990E-01   1.000E-03  -2.091E-04
1063  7.56926424   0.760   0.84401   3.98195   7.27894   2.01556   0.10506   9.990E-01   1.000E-03  -2.086E-04
1064  7.56982686   0.760   0.84402   3.98195   7.27894   2.01557   0.10503   9.990E-01   1.000E-03  -2.080E-04
1065  7.57038876   0.760   0.84402   3.98195   7.27894   2.01558   0.10500   9.990E-01   1.000E-03  -2.075E-04
1066  7.57094994   0.760   0.84403   3.98195   7.27894   2.01558   0.10498   9.990E-01   1.000E-03  -2.069E-04
1067  7.57151039   0.760   0.84404   3.98195   7.27894   2.01559   0.10495   9.990E-01   1.000E-03  -2.063E-04
1068  7.57207011   0.760   0.84405   3.98195   7.27895   2.01559   0.10492   9.990E-01   1.000E-03  -2.058E-04
1069  7.57262912   0.760   0.84406   3.98195   7.27895   2.01560   0.10489   9.990E-01   1.000E-03  -2.052E-04
1070  7.57318741   0.760   0.84407   3.98195   7.27895   2.01561   0.10486   9.990E-01   1.000E-03  -2.047E-04
1071  7.57374498   0.760   0.84408   3.98195   7.27895   2.01561   0.10483   9.990E-01   1.000E-03  -2.041E-04
1072  7.57430184   0.760   0.84409   3.98195   7.27896   2.01562   0.10480   9.990E-01   1.000E-03  -2.036E-04
1073  7.57485798   0.760   0.84409   3.98195   7.27896   2.01562   0.10477   9.990E-01   1.000E-03  -2.030E-04
1074  7.57541341   0.760   0.84410   3.98195   7.27896   2.01563   0.10474   9.990E-01   1.000E-03  -2.025E-04
1075  7.57596813   0.760   0.84411   3.98195   7.27896   2.01564   0.10471   9.990E-01   1.000E-03  -2.019E-04
1076  7.57652215   0.760   0.84412   3.98195   7.27897   2.01564   0.10468   9.990E-01   1.000E-03  -2.013E-04
1077  7.57707546   0.760   0.84413   3.98195   7.27897   2.01565   0.10465   9.990E-01   1.000E-03  -2.008E-04
1078  7.57762806   0.760   0.84414   3.98195   7.27897   2.01565   0.10462   9.990E-01   1.000E-03  -2.002E-04
1079  7.57817997   0.760   0.84415   3.98195   7.27897   2.01566   0.10459   9.990E-01   1.000E-03  -1.997E-04
1080  7.57873117   0.760   0.84415   3.98195   7.27897   2.01566   0.10456   9.990E-01   1.000E-03  -1.991E-04
1081  7.57928167   0.760   0.84416   3.98195   7.27898   2.01567   0.10453   9.990E-01   1.000E-03  -1.986E-04
1082  7.57983148   0.760   0.84417   3.98196   7.27898   2.01568   0.10450   9.990E-01   1.000E-03  -1.980E-04
1083  7.58038059   0.760   0.84418   3.98196   7.27898   2.01568   0.10447   9.990E-01   1.000E-03  -1.974E-04
1084  7.58092901   0.760   0.84419   3.98196   7.27898   2.01569   0.10444   9.990E-01   1.000E-03  -1.969E-04
1085  7.58147673   0.760   0.84420   3.98196   7.27899   2.01569   0.10441   9.990E-01   1.000E-03  -1.963E-04
1086  7.58202377   0.760   0.84421   3.98196   7.27899   2.01570   0.10438   9.990E-01   1.000E-03  -1.958E-04
1087  7.58257012   0.760   0.84422   3.98196   7.27899   2.01571   0.10435   9.990E-01   1.000E-03  -1.952E-04
1088  7.58311578   0.760   0.84422   3.98196   7.27899   2.01571   0.10432   9.990E-01   1.000E-03  -1.947E-04
1089  7.58366076   0.760   0.84423   3.98196   7.27900   2.01572   0.10429   9.990E-01   1.000E-03  -1.941E-04
1090  7.58420505   0.760   0.84424   3.98196   7.27900   2.01572   0.10426   9.990E-01   1.000E-03  -1.936E-04
1091  7.58474867   0.760   0.84425   3.98196   7.27900   2.01573   0.10423   9.990E-01   1.000E-03  -1.930E-04
1092  7.71218037   0.756   0.84649   3.98214   7.27973   2.01762   0.10423   9.990E-01   1.000E-03  -5.932E-05
1093  7.81057932   0.752   0.84860   3.98233   7.28052   2.01957   0.10423   9.990E-01   1.000E-03   3.558E-06
1094  7.89075036   0.748   0.85067   3.98253   7.28133   2.02158   0.10423   9.990E-01   1.000E-03   4.351E-05
1095  7.95840277   0.744   0.85270   3.98274   7.28217   2.02366   0.10423   9.990E-01   1.000E-03   7.778E-05
1096  8.01692318   0.740   0.85472   3.98295   7.28302   2.02576   0.10423   9.986E-01   1.000E-03   1.028E-04
1097  8.06848629   0.736   0.85673   3.98317   7.28389   2.02789   0.10184   9.980E-01   1.000E-03   1.214E-04
1098  8.11457197   0.732   0.85875   3.98339   7.28476   2.03010   0.09827   9.980E-01   1.405E-03   1.456E-04
1099  8.15623298   0.728   0.86077   3.98362   7.28565   2.03238   0.09827   9.980E-01   2.000E-03   1.699E-04
1100  8.19424503   0.723   0.86275   3.98384   7.28655   2.03461   0.09827   9.980E-01   2.000E-03   1.710E-04
1101  8.22919615   0.719   0.86474   3.98406   7.28744   2.03684   0.09827   9.980E-01   2.000E-03   1.716E-04
1102  8.26154277   0.715   0.86672   3.98428   7.28834   2.03908   0.09827   9.980E-01   2.000E-03   1.829E-04
1103  8.29164630   0.711   0.86871   3.98450   7.28924   2.04134   0.09827   9.980E-01   2.000E-03   1.944E-04
1104  8.31979775   0.706   0.87070   3.98472   7.29015   2.04361   0.09592   9.980E-01   2.000E-03   2.050E-04
1105  8.34623495   0.702   0.87271   3.98494   7.29106   2.04595   0.09232   9.980E-01   2.000E-03   2.246E-04
1106  8.37115474   0.698   0.87472   3.98518   7.29199   2.04837   0.09232   9.980E-01   2.000E-03   2.480E-04
1107  8.39472190   0.693   0.87671   3.98540   7.29292   2.05074   0.09232   9.980E-01   2.000E-03   2.466E-04
1108  8.41707574   0.689   0.87870   3.98562   7.29385   2.05309   0.09232   9.976E-01   2.000E-03   2.440E-04
1109  8.43833510   0.684   0.88070   3.98584   7.29478   2.05547   0.09232   9.970E-01   2.000E-03   2.551E-04
1110  8.45860216   0.680   0.88270   3.98606   7.29572   2.05786   0.09000   9.970E-01   2.389E-03   2.673E-04
1111  8.47796545   0.675   0.88472   3.98628   7.29666   2.06034   0.08636   9.970E-01   3.000E-03   2.888E-04
1112  8.49650213   0.670   0.88676   3.98652   7.29762   2.06291   0.08636   9.970E-01   3.000E-03   3.144E-04
1113  8.51427991   0.666   0.88877   3.98674   7.29858   2.06541   0.08636   9.970E-01   3.000E-03   3.117E-04
1114  8.53135849   0.661   0.89079   3.98696   7.29954   2.06791   0.08414   9.970E-01   3.000E-03   3.073E-04
1115  8.54779079   0.656   0.89283   3.98719   7.30051   2.07048   0.08115   9.966E-01   3.000E-03   3.269E-04
1116  8.56362394   0.651   0.89488   3.98743   7.30148   2.07313   0.08115   9.960E-01   3.000E-03   3.491E-04
1117  8.57890011   0.646   0.89690   3.98766   7.30246   2.07573   0.08115   9.960E-01   3.477E-03   3.507E-04
1118  8.59365715   0.641   0.89895   3.98789   7.30345   2.07835   0.07895   9.960E-01   4.000E-03   3.529E-04
1119  8.60792919   0.636   0.90101   3.98812   7.30444   2.08106   0.07668   9.960E-01   4.000E-03   3.759E-04
1120  8.62174710   0.631   0.90309   3.98837   7.30543   2.08382   0.07668   9.960E-01   4.000E-03   3.975E-04
1121  8.63513889   0.626   0.90514   3.98860   7.30644   2.08655   0.07668   9.954E-01   4.000E-03   3.979E-04
1122  8.64813006   0.621   0.90721   3.98884   7.30745   2.08929   0.07350   9.950E-01   4.000E-03   4.029E-04
1123  8.66074388   0.616   0.90933   3.98909   7.30846   2.09222   0.07147   9.950E-01   4.642E-03   4.395E-04
1124  8.67300166   0.610   0.91142   3.98934   7.30949   2.09513   0.07042   9.950E-01   5.000E-03   4.584E-04
1125  8.68492294   0.605   0.91350   3.98957   7.31052   2.09799   0.06998   9.943E-01   5.000E-03   4.388E-04
1126  8.69652571   0.600   0.91561   3.98980   7.31158   2.10096   0.06998   9.940E-01   5.000E-03   4.233E-04
1127  8.70782654   0.594   0.91778   3.98998   7.31277   2.10424   0.06998   9.940E-01   5.844E-03   3.577E-04
1128  8.71884076   0.589   0.92006   3.99018   7.31399   2.10778   0.06584   9.940E-01   6.000E-03   3.979E-04
1129  8.72958253   0.583   0.92244   3.99041   7.31524   2.11170   0.06518   9.930E-01   6.000E-03   4.903E-04
1130  8.74006502   0.578   0.92473   3.99064   7.31651   2.11540   0.06105   9.930E-01   6.260E-03   4.714E-04
1131  8.75030045   0.572   0.92705   3.99085   7.31777   2.11920   0.06105   9.926E-01   7.000E-03   4.532E-04
1132  8.76030020   0.566   0.92939   3.99107   7.31905   2.12303   0.05935   9.920E-01   7.000E-03   4.750E-04
1133  8.77007487   0.560   0.93176   3.99129   7.32033   2.12697   0.05807   9.920E-01   7.741E-03   5.024E-04
1134  8.77963438   0.554   0.93414   3.99153   7.32164   2.13095   0.05807   9.911E-01   8.000E-03   5.250E-04
1135  8.78898799   0.548   0.93653   3.99175   7.32296   2.13497   0.05509   9.910E-01   8.118E-03   5.354E-04
1136  8.79814438   0.542   0.93896   3.99199   7.32428   2.13916   0.05414   9.907E-01   9.000E-03   5.744E-04
1137  8.80711171   0.536   0.94140   3.99224   7.32562   2.14340   0.05211   9.900E-01   9.532E-03   5.933E-04
1138  8.81589762   0.530   0.94386   3.99249   7.32697   2.14771   0.04972   9.892E-01   1.000E-02   6.184E-04
1139  8.82450931   0.523   0.94636   3.99276   7.32832   2.15220   0.04895   9.890E-01   1.000E-02   6.516E-04
1140  8.83295355   0.517   0.94885   3.99302   7.32970   2.15671   0.04560   9.888E-01   1.100E-02   6.748E-04
1141  8.84123673   0.510   0.95139   3.99329   7.33108   2.16138   0.04397   9.880E-01   1.149E-02   6.981E-04
1142  8.84936488   0.503   0.95395   3.99357   7.33246   2.16617   0.03973   9.872E-01   1.200E-02   7.318E-04
1143  8.85734370   0.496   0.95654   3.99387   7.33384   2.17116   0.03876   9.870E-01   1.300E-02   7.750E-04
1144  8.86517857   0.489   0.95872   3.99402   7.33531   2.17489   0.03879   9.860E-01   1.334E-02   5.465E-04
1145  8.87287459   0.483   0.96058   3.99398   7.33666   2.17715   0.04421   9.856E-01   1.400E-02   2.159E-04
1146  8.88043661   0.477   0.96330   3.99421   7.33784   2.18171   0.04225   9.846E-01   1.444E-02   6.119E-04
1147  8.88786921   0.470   0.96565   3.99442   7.33932   2.18582   0.04225   9.840E-01   1.500E-02   7.000E-04
1148  8.89517674   0.463   0.96858   3.99476   7.34057   2.19148   0.03926   9.831E-01   1.589E-02   7.696E-04
1149  8.90236335   0.456   0.97184   3.99537   7.34205   2.19874   0.03375   9.820E-01   1.643E-02   1.412E-03
1150  8.90943297   0.449   0.97497   3.99588   7.34338   2.20590   0.02858   9.811E-01   1.700E-02   1.204E-03
1151  8.91638934   0.441   0.97773   3.99626   7.34485   2.21189   0.02302   9.806E-01   1.800E-02   1.079E-03
1152  8.92323605   0.434   0.98089   3.99676   7.34606   2.21931   0.01696   9.800E-01   1.881E-02   1.320E-03
1153  8.92997649   0.426   0.98372   3.99712   7.34739   2.22573   0.01290   9.790E-01   2.000E-02   1.001E-03
1154  8.93661391   0.417   0.98662   3.99749   7.34870   2.23231   0.01019   9.783E-01   2.065E-02   1.066E-03
1155  8.94315142   0.409   0.98955   3.99787   7.34999   2.23900   0.00803   9.770E-01   2.200E-02   1.082E-03
1156  8.94959197   0.400   0.99250   3.99824   7.35127   2.24605   0.00583   9.764E-01   2.258E-02   1.100E-03
1157  8.95593840   0.391   0.99543   3.99857   7.35277   2.25404   0.00364   9.750E-01   2.400E-02   1.050E-03
1158  8.96219343   0.382   0.99846   3.99891   7.35431   2.26262   0.00164   9.745E-01   2.453E-02   1.077E-03
1159  8.96835965   0.373   1.00155   3.99924   7.35591   2.27132   0.00109   9.729E-01   2.606E-02   1.121E-03
1160  8.97443954   0.364   1.00467   3.99957   7.35751   2.28003   0.00037   9.714E-01   2.761E-02   1.124E-03
1161  8.98043548   0.354   1.00784   3.99994   7.35912   2.28889   0.00003   9.698E-01   2.917E-02   1.155E-03
1162  8.98634978   0.345   1.01105   4.00043   7.36074   2.29782   0.00000   9.682E-01   3.077E-02   1.195E-03
1163  8.99218461   0.335   1.01428   4.00078   7.36236   2.30673   0.00000   9.666E-01   3.238E-02   1.224E-03
1164  8.99794209   0.326   1.01755   4.00113   7.36399   2.31564   0.00000   9.650E-01   3.400E-02   1.250E-03
1165  9.00362424   0.317   1.02084   4.00148   7.36564   2.32457   0.00000   9.627E-01   3.564E-02   1.283E-03
1166  9.00923300   0.307   1.02417   4.00184   7.36729   2.33351   0.00000   9.607E-01   3.829E-02   1.303E-03
1167  9.01477025   0.298   1.02751   4.00219   7.36896   2.34242   0.00000   9.590E-01   3.996E-02   1.300E-03
1168  9.02023779   0.289   1.03091   4.00255   7.37064   2.35138   0.00000   9.564E-01   4.229E-02   1.333E-03
1169  9.02563736   0.280   1.03432   4.00291   7.37235   2.36034   0.00000   9.543E-01   4.469E-02   1.363E-03
1170  9.03097061   0.271   1.03777   4.00327   7.37409   2.36930   0.00000   9.519E-01   4.711E-02   1.381E-03
1171  9.03623916   0.261   1.04124   4.00363   7.37584   2.37826   0.00000   9.492E-01   4.979E-02   1.416E-03
1172  9.04144456   0.252   1.04474   4.00400   7.37762   2.38723   0.00000   9.459E-01   5.253E-02   1.435E-03
1173  9.04658831   0.243   1.04827   4.00436   7.37942   2.39619   0.00000   9.434E-01   5.556E-02   1.453E-03
1174  9.05167185   0.234   1.05182   4.00473   7.38125   2.40516   0.00000   9.399E-01   5.905E-02   1.470E-03
1175  9.05669658   0.225   1.05539   4.00509   7.38309   2.41413   0.00000   9.363E-01   6.166E-02   1.480E-03
1176  9.06166383   0.216   1.05898   4.00544   7.38498   2.42304   0.00000   9.328E-01   6.524E-02   1.492E-03
1177  9.06657491   0.207   1.06260   4.00579   7.38690   2.43196   0.00000   9.292E-01   6.885E-02   1.514E-03
1178  9.07143108   0.198   1.06625   4.00616   7.38888   2.44144   0.00000   9.255E-01   7.348E-02   1.532E-03
1179  9.07623355   0.189   1.06989   4.00650   7.39104   2.45280   0.00000   9.209E-01   7.719E-02   1.529E-03
1180  9.08098349   0.180   1.07356   4.00682   7.39341   2.46410   0.00000   9.163E-01   8.178E-02   1.529E-03
1181  9.08568204   0.170   1.07722   4.00714   7.39595   2.47533   0.00000   9.108E-01   8.716E-02   1.523E-03
1182  9.09033030   0.161   1.08089   4.00743   7.39862   2.48648   0.00000   9.053E-01   9.266E-02   1.520E-03
1183  9.09492934   0.151   1.08456   4.00771   7.40145   2.49756   0.00000   8.998E-01   9.857E-02   1.516E-03
1184  9.09948018   0.142   1.08824   4.00796   7.40439   2.50859   0.00000   8.931E-01   1.057E-01   1.505E-03
1185  9.10398384   0.131   1.09191   4.00819   7.40748   2.51951   0.00000   8.857E-01   1.123E-01   1.490E-03
1186  9.10844127   0.121   1.09560   4.00839   7.41066   2.53045   0.00000   8.784E-01   1.205E-01   1.490E-03
1187  9.11285341   0.111   1.09929   4.00858   7.41387   2.54144   0.00000   8.700E-01   1.287E-01   1.480E-03
1188  9.11722118   0.100   1.10300   4.00874   7.41708   2.55255   0.00000   8.610E-01   1.374E-01   1.492E-03
1189  9.12154546   0.089   1.10675   4.00889   7.42023   2.56385   0.00000   8.516E-01   1.464E-01   1.538E-03
1190  9.12582710   0.079   1.11056   4.00905   7.42335   2.57541   0.00000   8.417E-01   1.563E-01   1.800E-03
1191  9.13006696   0.068   1.11444   4.00921   7.42627   2.58739   0.00000   8.310E-01   1.670E-01   2.100E-03
1192  9.13081592   0.067   1.11514   4.00923   7.42675   2.58957   0.00000   8.291E-01   1.684E-01   2.157E-03
1193  9.13156359   0.065   1.11585   4.00926   7.42722   2.59176   0.00000   8.272E-01   1.699E-01   2.214E-03
1194  9.13230998   0.063   1.11656   4.00928   7.42767   2.59399   0.00000   8.257E-01   1.718E-01   2.283E-03
1195  9.13305509   0.061   1.11727   4.00931   7.42811   2.59623   0.00000   8.242E-01   1.738E-01   2.353E-03
1196  9.13379892   0.059   1.11798   4.00934   7.42854   2.59851   0.00000   8.221E-01   1.754E-01   2.421E-03
1197  9.13454148   0.058   1.11870   4.00937   7.42896   2.60079   0.00000   8.200E-01   1.770E-01   2.489E-03
1198  9.13528277   0.056   1.11942   4.00940   7.42935   2.60307   0.00000   8.184E-01   1.786E-01   2.544E-03
1199  9.13602279   0.054   1.12015   4.00942   7.42975   2.60537   0.00000   8.167E-01   1.803E-01   2.601E-03
1200  9.13676156   0.053   1.12088   4.00945   7.43012   2.60771   0.00000   8.150E-01   1.820E-01   2.669E-03
1201  9.13749908   0.051   1.12161   4.00948   7.43049   2.61007   0.00000   8.133E-01   1.837E-01   2.738E-03
1202  9.13823534   0.049   1.12235   4.00950   7.43083   2.61244   0.00000   8.115E-01   1.855E-01   2.809E-03
1203  9.13897036   0.048   1.12310   4.00953   7.43115   2.61484   0.00000   8.097E-01   1.873E-01   2.873E-03
1204  9.13970414   0.046   1.12385   4.00956   7.43147   2.61725   0.00000   8.079E-01   1.891E-01   2.933E-03
1205  9.14043667   0.045   1.12460   4.00959   7.43178   2.61967   0.00000   8.067E-01   1.903E-01   2.990E-03
1206  9.14116798   0.043   1.12536   4.00963   7.43207   2.62210   0.00000   8.051E-01   1.919E-01   3.053E-03
1207  9.14189805   0.042   1.12611   4.00966   7.43235   2.62454   0.00000   8.031E-01   1.939E-01   3.125E-03
1208  9.14262690   0.040   1.12688   4.00968   7.43261   2.62702   0.00000   8.018E-01   1.952E-01   3.204E-03
1209  9.14335453   0.039   1.12766   4.00971   7.43286   2.62951   0.00000   8.001E-01   1.966E-01   3.279E-03
1210  9.14408095   0.037   1.12843   4.00975   7.43310   2.63202   0.00000   7.981E-01   1.979E-01   3.347E-03
1211  9.14480615   0.036   1.12921   4.00978   7.43332   2.63454   0.00000   7.967E-01   1.993E-01   3.403E-03
1212  9.14553014   0.035   1.12999   4.00982   7.43354   2.63706   0.00000   7.953E-01   2.007E-01   3.456E-03
1213  9.14625292   0.033   1.13077   4.00985   7.43375   2.63959   0.00000   7.938E-01   2.023E-01   3.508E-03
1214  9.14697450   0.032   1.13157   4.00989   7.43394   2.64214   0.00000   7.924E-01   2.044E-01   3.573E-03
1215  9.14769489   0.031   1.13236   4.00992   7.43412   2.64470   0.00000   7.909E-01   2.056E-01   3.634E-03
1216  9.14841409   0.030   1.13316   4.00996   7.43429   2.64728   0.00000   7.894E-01   2.066E-01   3.694E-03
1217  9.14913209   0.028   1.13397   4.00999   7.43445   2.64987   0.00000   7.879E-01   2.081E-01   3.755E-03
1218  9.14984891   0.027   1.13479   4.01003   7.43460   2.65247   0.00000   7.863E-01   2.097E-01   3.816E-03
1219  9.15056455   0.026   1.13560   4.01007   7.43474   2.65508   0.00000   7.848E-01   2.112E-01   3.879E-03
1220  9.15127901   0.025   1.13642   4.01011   7.43487   2.65768   0.00000   7.832E-01   2.128E-01   3.934E-03
1221  9.15199230   0.024   1.13724   4.01014   7.43500   2.66029   0.00000   7.816E-01   2.142E-01   3.984E-03
1222  9.15270442   0.023   1.13806   4.01018   7.43512   2.66291   0.00000   7.800E-01   2.150E-01   4.040E-03
1223  9.15341537   0.022   1.13890   4.01022   7.43523   2.66554   0.00000   7.792E-01   2.166E-01   4.097E-03
1224  9.15412516   0.021   1.13973   4.01026   7.43533   2.66818   0.00000   7.777E-01   2.183E-01   4.149E-03
1225  9.15483380   0.020   1.14056   4.01030   7.43542   2.67084   0.00000   7.760E-01   2.195E-01   4.199E-03
1226  9.15554128   0.020   1.14140   4.01034   7.43551   2.67349   0.00000   7.747E-01   2.207E-01   4.243E-03
1227  9.15624760   0.019   1.14225   4.01038   7.43560   2.67613   0.00000   7.736E-01   2.224E-01   4.279E-03
1228  9.15695279   0.018   1.14310   4.01042   7.43568   2.67879   0.00000   7.719E-01   2.240E-01   4.322E-03
1229  9.15765682   0.017   1.14395   4.01046   7.43575   2.68145   0.00000   7.702E-01   2.249E-01   4.375E-03
1230  9.15835972   0.016   1.14481   4.01050   7.43582   2.68412   0.00000   7.692E-01   2.266E-01   4.435E-03
1231  9.15906148   0.016   1.14567   4.01054   7.43588   2.68680   0.00000   7.676E-01   2.277E-01   4.491E-03
1232  9.15976211   0.015   1.14654   4.01058   7.43593   2.68949   0.00000   7.664E-01   2.292E-01   4.539E-03
1233  9.16046162   0.014   1.14741   4.01062   7.43599   2.69217   0.00000   7.650E-01   2.305E-01   4.579E-03
1234  9.16115999   0.014   1.14828   4.01067   7.43604   2.69486   0.00000   7.636E-01   2.318E-01   4.620E-03
1235  9.16185725   0.013   1.14915   4.01071   7.43610   2.69755   0.00000   7.624E-01   2.333E-01   4.666E-03
1236  9.16255339   0.012   1.15003   4.01075   7.43614   2.70025   0.00000   7.608E-01   2.342E-01   4.712E-03
1237  9.16324841   0.012   1.15091   4.01079   7.43618   2.70296   0.00000   7.596E-01   2.354E-01   4.757E-03
1238  9.16394233   0.011   1.15179   4.01083   7.43621   2.70567   0.00000   7.579E-01   2.371E-01   4.795E-03
1239  9.16463513   0.011   1.15269   4.01087   7.43625   2.70838   0.00000   7.569E-01   2.381E-01   4.832E-03
1240  9.16532684   0.010   1.15357   4.01091   7.43628   2.71108   0.00000   7.559E-01   2.391E-01   4.861E-03
1241  9.16601744   0.010   1.15447   4.01095   7.43632   2.71380   0.00000   7.540E-01   2.410E-01   4.900E-03
1242  9.16658284   0.009   1.15521   4.01098   7.43634   2.71602   0.00000   7.532E-01   2.418E-01   4.948E-03
1243  9.16714751   0.009   1.15596   4.01101   7.43636   2.71826   0.00000   7.518E-01   2.426E-01   4.990E-03
1244  9.16771144   0.009   1.15670   4.01105   7.43638   2.72051   0.00000   7.506E-01   2.438E-01   5.027E-03
1245  9.16827464   0.008   1.15744   4.01108   7.43640   2.72275   0.00000   7.498E-01   2.452E-01   5.059E-03
1246  9.16883711   0.008   1.15819   4.01112   7.43642   2.72500   0.00000   7.489E-01   2.460E-01   5.092E-03
1247  9.16939886   0.008   1.15894   4.01115   7.43644   2.72724   0.00000   7.472E-01   2.469E-01   5.125E-03
1248  9.16995988   0.007   1.15969   4.01118   7.43646   2.72949   0.00000   7.463E-01   2.484E-01   5.158E-03
1249  9.17052017   0.007   1.16044   4.01121   7.43648   2.73174   0.00000   7.455E-01   2.495E-01   5.192E-03
1250  9.17107975   0.007   1.16120   4.01125   7.43650   2.73400   0.00000   7.442E-01   2.504E-01   5.225E-03
1251  9.17163860   0.006   1.16196   4.01128   7.43651   2.73627   0.00000   7.428E-01   2.515E-01   5.259E-03
1252  9.17219674   0.006   1.16271   4.01131   7.43652   2.73854   0.00000   7.419E-01   2.531E-01   5.292E-03
1253  9.17275415   0.006   1.16348   4.01135   7.43654   2.74082   0.00000   7.411E-01   2.539E-01   5.318E-03
1254  9.17331086   0.006   1.16425   4.01138   7.43656   2.74309   0.00000   7.402E-01   2.548E-01   5.336E-03
1255  9.17386685   0.005   1.16501   4.01141   7.43657   2.74537   0.00000   7.387E-01   2.557E-01   5.367E-03
1256  9.17442213   0.005   1.16578   4.01144   7.43659   2.74765   0.00000   7.375E-01   2.571E-01   5.407E-03
1257  9.17497670   0.005   1.16655   4.01147   7.43660   2.74995   0.00000   7.366E-01   2.584E-01   5.447E-03
1258  9.17553057   0.005   1.16733   4.01150   7.43661   2.75224   0.00000   7.354E-01   2.593E-01   5.485E-03
1259  9.17608372   0.005   1.16811   4.01154   7.43662   2.75455   0.00000   7.338E-01   2.602E-01   5.528E-03
1260  9.17663618   0.004   1.16889   4.01156   7.43664   2.75685   0.00000   7.329E-01   2.611E-01   5.563E-03
1261  9.17718793   0.004   1.16968   4.01159   7.43665   2.75915   0.00000   7.320E-01   2.620E-01   5.590E-03
1262  9.17773899   0.004   1.17046   4.01163   7.43667   2.76146   0.00000   7.311E-01   2.638E-01   5.617E-03
1263  9.17828934   0.004   1.17124   4.01165   7.43669   2.76378   0.00000   7.294E-01   2.648E-01   5.653E-03
1264  9.17883900   0.004   1.17203   4.01168   7.43670   2.76610   0.00000   7.283E-01   2.657E-01   5.689E-03
1265  9.17938796   0.004   1.17282   4.01171   7.43672   2.76843   0.00000   7.273E-01   2.667E-01   5.726E-03
1266  9.17993623   0.003   1.17361   4.01174   7.43673   2.77076   0.00000   7.264E-01   2.682E-01   5.752E-03
1267  9.18048381   0.003   1.17441   4.01177   7.43675   2.77309   0.00000   7.249E-01   2.695E-01   5.776E-03
1268  9.18103070   0.003   1.17521   4.01179   7.43677   2.77542   0.00000   7.235E-01   2.705E-01   5.804E-03
1269  9.18157690   0.003   1.17601   4.01182   7.43678   2.77777   0.00000   7.226E-01   2.714E-01   5.841E-03
1270  9.18212242   0.003   1.17681   4.01185   7.43680   2.78012   0.00000   7.216E-01   2.724E-01   5.885E-03
1271  9.18266725   0.003   1.17762   4.01188   7.43682   2.78248   0.00000   7.207E-01   2.737E-01   5.927E-03
1272  9.18321140   0.003   1.17843   4.01191   7.43684   2.78485   0.00000   7.194E-01   2.753E-01   5.972E-03
1273  9.18375487   0.002   1.17924   4.01193   7.43686   2.78724   0.00000   7.177E-01   2.763E-01   6.011E-03
1274  9.18429766   0.002   1.18006   4.01196   7.43688   2.78962   0.00000   7.167E-01   2.773E-01   6.048E-03
1275  9.18483977   0.002   1.18087   4.01198   7.43689   2.79201   0.00000   7.158E-01   2.782E-01   6.080E-03
1276  9.18538120   0.002   1.18169   4.01201   7.43691   2.79440   0.00000   7.145E-01   2.792E-01   6.119E-03
1277  9.18592196   0.002   1.18251   4.01203   7.43693   2.79680   0.00000   7.128E-01   2.805E-01   6.159E-03
1278  9.18646205   0.002   1.18334   4.01206   7.43695   2.79920   0.00000   7.118E-01   2.822E-01   6.200E-03
1279  9.18700147   0.002   1.18416   4.01209   7.43698   2.80162   0.00000   7.107E-01   2.833E-01   6.238E-03
1280  9.18754022   0.002   1.18499   4.01211   7.43701   2.80405   0.00000   7.097E-01   2.843E-01   6.268E-03
1281  9.18807830   0.002   1.18582   4.01214   7.43703   2.80648   0.00000   7.087E-01   2.853E-01   6.296E-03
1282  9.18861572   0.002   1.18665   4.01216   7.43706   2.80891   0.00000   7.073E-01   2.863E-01   6.327E-03
1283  9.18915247   0.001   1.18749   4.01218   7.43708   2.81135   0.00000   7.056E-01   2.874E-01   6.375E-03
1284  9.18968856   0.001   1.18833   4.01220   7.43711   2.81380   0.00000   7.046E-01   2.889E-01   6.422E-03
1285  9.19022398   0.001   1.18917   4.01222   7.43713   2.81625   0.00000   7.035E-01   2.905E-01   6.470E-03
1286  9.19075875   0.001   1.19001   4.01224   7.43716   2.81872   0.00000   7.024E-01   2.916E-01   6.512E-03
1287  9.19129286   0.001   1.19086   4.01226   7.43719   2.82120   0.00000   7.007E-01   2.926E-01   6.561E-03
1288  9.19182632   0.001   1.19171   4.01228   7.43722   2.82368   0.00000   6.993E-01   2.937E-01   6.594E-03
1289  9.19235912   0.001   1.19256   4.01230   7.43725   2.82616   0.00000   6.982E-01   2.948E-01   6.640E-03
1290  9.19289126   0.001   1.19342   4.01232   7.43729   2.82864   0.00000   6.971E-01   2.959E-01   6.686E-03
1291  9.19342276   0.001   1.19427   4.01233   7.43733   2.83115   0.00000   6.960E-01   2.970E-01   6.740E-03
1292  9.19514404   0.001   1.19707   4.01240   7.43745   2.83940   0.00000   6.927E-01   3.016E-01   5.899E-03
1293  9.19685852   0.001   1.19988   4.01245   7.43758   2.84777   0.00000   6.889E-01   3.061E-01   5.095E-03
1294  9.19856625   0.001   1.20273   4.01249   7.43767   2.85626   0.00000   6.859E-01   3.101E-01   4.362E-03
1295  9.20026730   0.000   1.20562   4.01251   7.43779   2.86484   0.00000   6.824E-01   3.143E-01   3.757E-03
1296  9.20196172   0.000   1.20853   4.01253   7.43791   2.87355   0.00000   6.792E-01   3.178E-01   3.231E-03
1297  9.20364955   0.000   1.21148   4.01253   7.43800   2.88241   0.00000   6.761E-01   3.219E-01   2.745E-03
1298  9.20533084   0.000   1.21444   4.01254   7.43818   2.89119   0.00000   6.717E-01   3.263E-01   2.729E-03
1299  9.20700565   0.000   1.21743   4.01254   7.43841   2.90004   0.00000   6.663E-01   3.308E-01   2.749E-03
1300  9.20867403   0.000   1.22044   4.01254   7.43866   2.90977   0.00000   6.628E-01   3.352E-01   2.721E-03
1301  9.21033602   0.000   1.22349   4.01253   7.43890   2.91890   0.00000   6.573E-01   3.398E-01   2.708E-03
1302  9.21199167   0.000   1.22659   4.01250   7.43920   2.92840   0.00000   6.526E-01   3.444E-01   2.699E-03
1303  9.21364104   0.000   1.22972   4.01247   7.43945   2.93793   0.00000   6.480E-01   3.491E-01   2.730E-03
1304  9.21528417   0.000   1.23288   4.01242   7.43981   2.94808   0.00000   6.432E-01   3.548E-01   2.710E-03
1305  9.21692110   0.000   1.23609   4.01237   7.44011   2.95795   0.00000   6.375E-01   3.595E-01   2.728E-03
1306  9.21855189   0.000   1.23934   4.01230   7.44050   2.96859   0.00000   6.326E-01   3.644E-01   2.704E-03
1307  9.22017658   0.000   1.24265   4.01222   7.44085   2.97910   0.00000   6.273E-01   3.703E-01   2.757E-03
1308  9.22179521   0.000   1.24599   4.01213   7.44119   2.98965   0.00000   6.218E-01   3.752E-01   2.758E-03
1309  9.22340783   0.000   1.24938   4.01202   7.44157   3.00039   0.00000   6.167E-01   3.810E-01   2.755E-03
1310  9.22501448   0.000   1.25282   4.01189   7.44202   3.01150   0.00000   6.106E-01   3.864E-01   2.780E-03
1311  9.22661522   0.000   1.25631   4.01174   7.44245   3.02298   0.00000   6.052E-01   3.926E-01   2.780E-03
1312  9.22821007   0.000   1.25985   4.01158   7.44291   3.03449   0.00000   5.991E-01   3.979E-01   2.790E-03
1313  9.22979909   0.000   1.26347   4.01141   7.44338   3.04631   0.00000   5.930E-01   4.042E-01   2.822E-03
1314  9.23138232   0.000   1.26712   4.01119   7.44392   3.05862   0.00000   5.873E-01   4.102E-01   2.809E-03
1315  9.23295979   0.000   1.27085   4.01097   7.44444   3.07106   0.00000   5.808E-01   4.166E-01   2.844E-03
1316  9.23453156   0.000   1.27462   4.01070   7.44510   3.08430   0.00000   5.742E-01   4.228E-01   2.800E-03
1317  9.23609766   0.000   1.27850   4.01043   7.44567   3.09762   0.00000   5.674E-01   4.296E-01   2.878E-03
1318  9.23765813   0.000   1.28242   4.01013   7.44627   3.11126   0.00000   5.606E-01   4.364E-01   2.881E-03
1319  9.23921302   0.000   1.28643   4.00978   7.44695   3.12550   0.00000   5.536E-01   4.434E-01   2.874E-03
1320  9.24076235   0.000   1.29051   4.00941   7.44763   3.14015   0.00000   5.466E-01   4.504E-01   2.919E-03
1321  9.24230618   0.000   1.29468   4.00900   7.44833   3.15526   0.00000   5.394E-01   4.576E-01   2.920E-03
1322  9.24384455   0.000   1.29893   4.00854   7.44914   3.17099   0.00000   5.321E-01   4.649E-01   2.943E-03
1323  9.24537748   0.000   1.30327   4.00805   7.44993   3.18731   0.00000   5.246E-01   4.728E-01   2.946E-03
1324  9.24690502   0.000   1.30770   4.00750   7.45078   3.20425   0.00000   5.164E-01   4.806E-01   2.877E-03
1325  9.24842720   0.000   1.31224   4.00691   7.45169   3.22194   0.00000   5.084E-01   4.886E-01   2.892E-03
1326  9.24994407   0.000   1.31688   4.00623   7.45263   3.24037   0.00000   5.002E-01   4.968E-01   2.846E-03
1327  9.25145566   0.000   1.32164   4.00550   7.45364   3.25964   0.00000   4.913E-01   5.057E-01   2.869E-03
1328  9.25296201   0.000   1.32651   4.00468   7.45476   3.27984   0.00000   4.822E-01   5.148E-01   2.829E-03
1329  9.25446315   0.000   1.33152   4.00376   7.45590   3.30108   0.00000   4.733E-01   5.243E-01   2.797E-03
1330  9.25595912   0.000   1.33666   4.00276   7.45717   3.32344   0.00000   4.631E-01   5.339E-01   2.751E-03
1331  9.25744995   0.000   1.34195   4.00162   7.45851   3.34709   0.00000   4.526E-01   5.444E-01   2.738E-03
1332  9.25893569   0.000   1.34741   4.00036   7.45999   3.37212   0.00000   4.418E-01   5.552E-01   2.750E-03
1333  9.26041636   0.000   1.35305   3.99864   7.46160   3.39873   0.00000   4.307E-01   5.664E-01   2.695E-03
1334  9.26189199   0.000   1.35888   3.99703   7.46341   3.42711   0.00000   4.182E-01   5.788E-01   2.670E-03
1335  9.26336263   0.000   1.36492   3.99523   7.46543   3.45761   0.00000   4.062E-01   5.917E-01   2.611E-03
1336  9.26482831   0.000   1.37122   3.99313   7.46772   3.49050   0.00000   3.928E-01   6.052E-01   2.579E-03
1337  9.26628906   0.000   1.37778   3.99073   7.47039   3.52622   0.00000   3.779E-01   6.194E-01   2.493E-03
1338  9.26774491   0.000   1.38467   3.98791   7.47351   3.56527   0.00000   3.626E-01   6.347E-01   2.382E-03
1339  9.26919590   0.000   1.39190   3.98461   7.47724   3.60812   0.00000   3.458E-01   6.522E-01   2.246E-03
1340  9.27064205   0.000   1.39954   3.98062   7.48180   3.65538   0.00000   3.280E-01   6.700E-01   2.110E-03
1341  9.27208341   1.000   1.40764   3.97591   7.48713   3.70693   0.00000   3.080E-01   6.900E-01   1.840E-03
