 # M = 0.25 Mo, Y = 0.2300, Z = 2.00000E-04, alpha = 1.20, X_D = 4.0E-05
 # Solar Mixture: Asplund et al. (2005)         
 # ------------------------------------------------------------------------------------------------------------
 # NMD   LOG AGE    Xc      LOG L     LOG TE    LOG Tc   LOG RHOc    M-CC       L-PP       L-CNO       L-GRA
 #        (yr)              (Lo)        (K)       (K)   (gr/cm^3)    (Mo)        (L)         (L)         (L)
 # ------------------------------------------------------------------------------------------------------------
   1  5.13421811   0.770   0.01421   3.62343   6.00169  -0.48474   0.00000   9.480E-01   0.000E+00   5.190E-02
   2  5.31768674   0.770   0.00462   3.62328   6.00598  -0.47181   0.00000   9.382E-01   0.000E+00   6.208E-02
   3  5.44626769   0.770  -0.00418   3.62314   6.00991  -0.45999   0.00000   9.411E-01   0.000E+00   5.900E-02
   4  5.54534846   0.770  -0.01198   3.62301   6.01338  -0.44953   0.00000   9.446E-01   0.000E+00   5.542E-02
   5  5.62597087   0.770  -0.01930   3.62289   6.01664  -0.43971   0.00000   9.484E-01   0.000E+00   5.159E-02
   6  5.69394414   0.770  -0.02611   3.62278   6.01967  -0.43058   0.00000   9.509E-01   0.000E+00   4.917E-02
   7  5.75270436   0.770  -0.03256   3.62267   6.02254  -0.42194   0.00000   9.523E-01   0.000E+00   4.774E-02
   8  5.80445350   0.770  -0.03900   3.62256   6.02541  -0.41330   0.00000   9.538E-01   0.000E+00   4.631E-02
   9  5.85068768   0.770  -0.04531   3.62245   6.02821  -0.40487   0.00000   9.537E-01   0.000E+00   4.646E-02
  10  5.89247001   0.770  -0.05159   3.62234   6.03099  -0.39648   0.00000   9.534E-01   0.000E+00   4.688E-02
  11  5.93058300   0.770  -0.05786   3.62223   6.03378  -0.38809   0.00000   9.531E-01   0.000E+00   4.729E-02
  12  5.96561943   0.770  -0.06440   3.62211   6.03668  -0.37935   0.00000   9.516E-01   0.000E+00   4.876E-02
  13  5.99803912   0.770  -0.07101   3.62200   6.03961  -0.37051   0.00000   9.497E-01   0.000E+00   5.058E-02
  14  6.02820590   0.770  -0.07762   3.62188   6.04255  -0.36167   0.00000   9.478E-01   0.000E+00   5.241E-02
  15  6.05641267   0.770  -0.08470   3.62175   6.04569  -0.35221   0.00000   9.449E-01   0.000E+00   5.520E-02
  16  6.08289864   0.770  -0.09214   3.62161   6.04898  -0.34229   0.00000   9.413E-01   0.000E+00   5.873E-02
  17  6.10786176   0.770  -0.09957   3.62147   6.05227  -0.33236   0.00000   9.377E-01   0.000E+00   6.227E-02
  18  6.13146767   0.770  -0.10772   3.62132   6.05587  -0.32148   0.00000   9.326E-01   0.000E+00   6.732E-02
  19  6.15385637   0.770  -0.11648   3.62116   6.05975  -0.30980   0.00000   9.263E-01   0.000E+00   7.364E-02
  20  6.17514725   0.770  -0.12524   3.62099   6.06362  -0.29812   0.00000   9.199E-01   0.000E+00   7.996E-02
  21  6.19544296   0.770  -0.13562   3.62080   6.06821  -0.28429   0.00000   9.097E-01   0.000E+00   9.025E-02
  22  6.21483239   0.770  -0.14629   3.62060   6.07293  -0.27008   0.00000   8.987E-01   0.000E+00   1.012E-01
  23  6.23339304   0.770  -0.15841   3.62036   6.07828  -0.25392   0.00000   8.828E-01   0.000E+00   1.172E-01
  24  6.25119286   0.770  -0.17164   3.62011   6.08414  -0.23627   0.00000   8.631E-01   0.000E+00   1.369E-01
  25  6.26829177   0.770  -0.18714   3.61981   6.09098  -0.21559   0.00000   8.337E-01   0.000E+00   1.663E-01
  26  6.28474289   0.770  -0.20434   3.61947   6.09858  -0.19265   0.00000   7.962E-01   0.000E+00   2.038E-01
  27  6.30059353   0.770  -0.22471   3.61906   6.10758  -0.16551   0.00000   7.417E-01   0.000E+00   2.583E-01
  28  6.31588596   0.770  -0.24912   3.61858   6.11836  -0.13297   0.00000   6.601E-01   0.000E+00   3.399E-01
  29  6.33065819   0.770  -0.27842   3.61799   6.13129  -0.09394   0.00000   5.441E-01   0.000E+00   4.559E-01
  30  6.34494443   0.770  -0.31221   3.61733   6.14626  -0.04873   0.00000   3.978E-01   0.000E+00   6.022E-01
  31  6.35877565   0.770  -0.34958   3.61661   6.16291   0.00150   0.00000   2.475E-01   0.000E+00   7.525E-01
  32  6.37217994   0.770  -0.38798   3.61589   6.18005   0.05328   0.00000   1.287E-01   0.000E+00   8.708E-01
  33  6.38518287   0.770  -0.42417   3.61524   6.19624   0.10226   0.00000   8.688E-02   0.000E+00   9.131E-01
  34  6.39780778   0.770  -0.45710   3.61468   6.21100   0.14697   0.00000   6.604E-02   0.000E+00   9.340E-01
  35  6.41007603   0.770  -0.48708   3.61419   6.22449   0.18783   0.00000   4.772E-02   0.000E+00   9.523E-01
  36  6.42200721   0.770  -0.51477   3.61375   6.23702   0.22574   0.00000   3.300E-02   0.000E+00   9.670E-01
  37  6.43361936   0.770  -0.54016   3.61338   6.24864   0.26082   0.00000   2.270E-02   0.000E+00   9.773E-01
  38  6.44492910   0.770  -0.56378   3.61304   6.25936   0.29338   0.00000   1.466E-02   0.000E+00   9.853E-01
  39  6.45595177   0.770  -0.58576   3.61274   6.26936   0.32375   0.00000   9.433E-03   0.000E+00   9.906E-01
  40  6.46670159   0.770  -0.60623   3.61246   6.27870   0.35212   0.00000   6.054E-03   0.000E+00   9.939E-01
  41  6.47719173   0.770  -0.62535   3.61222   6.28744   0.37868   0.00000   4.000E-03   0.000E+00   9.960E-01
  42  6.49292762   0.770  -0.65249   3.61189   6.29988   0.41650   0.00000   1.553E-03   0.000E+00   9.984E-01
  43  6.50811323   0.770  -0.67747   3.61161   6.31135   0.45143   0.00000   1.000E-03   0.000E+00   9.990E-01
  44  6.52278575   0.770  -0.70052   3.61135   6.32197   0.48376   0.00000   0.000E+00   0.000E+00   1.000E+00
  45  6.53697872   0.770  -0.72169   3.61113   6.33175   0.51353   0.00000   0.000E+00   0.000E+00   1.000E+00
  46  6.55072249   0.770  -0.74143   3.61094   6.34089   0.54139   0.00000   0.000E+00   0.000E+00   1.000E+00
  47  6.56404464   0.770  -0.75994   3.61076   6.34946   0.56754   0.00000   0.000E+00   0.000E+00   1.000E+00
  48  6.57697025   0.770  -0.77734   3.61060   6.35754   0.59218   0.00000   0.000E+00   0.000E+00   1.000E+00
  49  6.58952227   0.770  -0.79378   3.61046   6.36518   0.61549   0.00000   0.000E+00   0.000E+00   1.000E+00
  50  6.60172167   0.770  -0.80918   3.61033   6.37234   0.63738   0.00000   0.000E+00   0.000E+00   1.000E+00
  51  6.61358773   0.770  -0.82384   3.61021   6.37916   0.65822   0.00000   0.000E+00   0.000E+00   1.000E+00
  52  6.62513818   0.770  -0.83783   3.61010   6.38568   0.67816   0.00000   0.000E+00   0.000E+00   1.000E+00
  53  6.63638938   0.770  -0.85127   3.60999   6.39195   0.69734   0.00000   0.000E+00   0.000E+00   1.000E+00
  54  6.64735645   0.770  -0.86393   3.60990   6.39786   0.71543   0.00000   0.000E+00   0.000E+00   1.000E+00
  55  6.65805337   0.770  -0.87612   3.60981   6.40354   0.73285   0.00000   0.000E+00   0.000E+00   1.000E+00
  56  6.66849314   0.770  -0.88797   3.60972   6.40908   0.74979   0.00000   0.000E+00   0.000E+00   1.000E+00
  57  6.67868784   0.770  -0.89909   3.60964   6.41427   0.76571   0.00000   0.000E+00   0.000E+00   1.000E+00
  58  6.68864870   0.770  -0.90998   3.60957   6.41936   0.78130   0.00000   0.000E+00   0.000E+00   1.000E+00
  59  6.69838622   0.770  -0.92041   3.60949   6.42423   0.79624   0.00000   0.000E+00   0.000E+00   1.000E+00
  60  6.70791019   0.770  -0.93048   3.60943   6.42894   0.81069   0.00000   0.000E+00   0.000E+00   1.000E+00
  61  6.71722977   0.770  -0.94024   3.60936   6.43352   0.82471   0.00000   0.000E+00   0.000E+00   1.000E+00
  62  6.72635356   0.770  -0.94963   3.60930   6.43791   0.83820   0.00000   0.000E+00   0.000E+00   1.000E+00
  63  6.73528961   0.770  -0.95880   3.60924   6.44219   0.85135   0.00000   0.000E+00   0.000E+00   1.000E+00
  64  6.74404549   0.770  -0.96763   3.60918   6.44632   0.86404   0.00000   0.000E+00   0.000E+00   1.000E+00
  65  6.75262832   0.770  -0.97622   3.60912   6.45033   0.87637   0.00000   0.000E+00   0.000E+00   1.000E+00
  66  6.76104482   0.770  -0.98459   3.60907   6.45425   0.88840   0.00000   0.000E+00   0.000E+00   1.000E+00
  67  6.76930130   0.770  -0.99264   3.60902   6.45801   0.89997   0.00000   0.000E+00   0.000E+00   1.000E+00
  68  6.77740375   0.770  -1.00066   3.60897   6.46176   0.91150   0.00000   0.000E+00   0.000E+00   1.000E+00
  69  6.78535779   0.770  -1.00820   3.60892   6.46529   0.92236   0.00000   0.000E+00   0.000E+00   1.000E+00
  70  6.79316877   0.770  -1.01574   3.60887   6.46881   0.93323   0.00000   0.000E+00   0.000E+00   1.000E+00
  71  6.80084175   0.770  -1.02301   3.60882   6.47221   0.94370   0.00000   0.000E+00   0.000E+00   1.000E+00
  72  6.80838151   0.770  -1.03008   3.60878   6.47552   0.95389   0.00000   0.000E+00   0.000E+00   1.000E+00
  73  6.81579261   0.770  -1.03715   3.60873   6.47883   0.96407   0.00000   0.000E+00   0.000E+00   1.000E+00
  74  6.82307936   0.770  -1.04381   3.60869   6.48194   0.97366   0.00000   0.000E+00   0.000E+00   1.000E+00
  75  6.83024586   0.770  -1.05045   3.60865   6.48504   0.98320   0.00000   0.000E+00   0.000E+00   1.000E+00
  76  6.83729602   0.770  -1.05703   3.60861   6.48812   0.99267   0.00000   0.000E+00   0.000E+00   1.000E+00
  77  6.84423356   0.770  -1.06325   3.60857   6.49102   1.00162   0.00000   0.000E+00   0.000E+00   1.000E+00
  78  6.85106201   0.770  -1.06946   3.60853   6.49392   1.01057   0.00000   0.000E+00   0.000E+00   1.000E+00
  79  6.85778476   0.770  -1.07565   3.60849   6.49680   1.01947   0.00000   0.000E+00   0.000E+00   1.000E+00
  80  6.86440503   0.770  -1.08147   3.60845   6.49952   1.02787   0.00000   0.000E+00   0.000E+00   1.000E+00
  81  6.87092590   0.770  -1.08730   3.60841   6.50223   1.03626   0.00000   0.000E+00   0.000E+00   1.000E+00
  82  6.87735030   0.770  -1.09312   3.60838   6.50495   1.04465   0.00000   0.000E+00   0.000E+00   1.000E+00
  83  6.88368105   0.770  -1.09864   3.60834   6.50752   1.05259   0.00000   0.000E+00   0.000E+00   1.000E+00
  84  6.88992084   0.770  -1.10410   3.60830   6.51006   1.06046   0.00000   0.000E+00   0.000E+00   1.000E+00
  85  6.89607225   0.770  -1.10957   3.60827   6.51261   1.06833   0.00000   0.000E+00   0.000E+00   1.000E+00
  86  6.90213775   0.770  -1.11488   3.60824   6.51509   1.07599   0.00000   0.000E+00   0.000E+00   1.000E+00
  87  6.90811970   0.770  -1.12001   3.60820   6.51747   1.08338   0.00000   0.000E+00   0.000E+00   1.000E+00
  88  6.91402037   0.770  -1.12514   3.60817   6.51986   1.09076   0.00000   0.000E+00   0.000E+00   1.000E+00
  89  6.91984194   0.770  -1.13026   3.60814   6.52224   1.09815   0.00000   0.000E+00   0.000E+00   1.000E+00
  90  6.92558651   0.770  -1.13515   3.60810   6.52451   1.10519   0.00000   0.000E+00   0.000E+00   1.000E+00
  91  6.93125608   0.770  -1.13996   3.60807   6.52674   1.11213   0.00000   0.000E+00   0.000E+00   1.000E+00
  92  6.93685259   0.770  -1.14477   3.60804   6.52898   1.11906   0.00000   0.000E+00   0.000E+00   1.000E+00
  93  6.94237790   0.770  -1.14958   3.60800   6.53121   1.12600   0.00000   0.000E+00   0.000E+00   1.000E+00
  94  6.94783380   0.770  -1.15413   3.60797   6.53333   1.13257   0.00000   0.000E+00   0.000E+00   1.000E+00
  95  6.95322200   0.770  -1.15865   3.60795   6.53542   1.13909   0.00000   0.000E+00   0.000E+00   1.000E+00
  96  6.95854418   0.770  -1.16316   3.60792   6.53752   1.14560   0.00000   0.000E+00   0.000E+00   1.000E+00
  97  6.96380192   0.770  -1.16767   3.60789   6.53962   1.15211   0.00000   0.000E+00   0.000E+00   1.000E+00
  98  6.96899676   0.770  -1.17198   3.60786   6.54162   1.15834   0.00000   0.000E+00   0.000E+00   1.000E+00
  99  6.97413021   0.770  -1.17622   3.60783   6.54359   1.16444   0.00000   0.000E+00   0.000E+00   1.000E+00
 100  6.97920368   0.770  -1.18045   3.60780   6.54556   1.17054   0.00000   0.000E+00   0.000E+00   1.000E+00
 101  6.98421857   0.770  -1.18468   3.60777   6.54752   1.17664   0.00000   0.000E+00   0.000E+00   1.000E+00
 102  6.98917621   0.770  -1.18884   3.60774   6.54945   1.18264   0.00000   0.000E+00   0.000E+00   1.000E+00
 103  6.99407789   0.770  -1.19281   3.60771   6.55130   1.18835   0.00000   0.000E+00   0.000E+00   1.000E+00
 104  6.99892487   0.770  -1.19678   3.60769   6.55314   1.19407   0.00000   0.000E+00   0.000E+00   1.000E+00
 105  7.00371835   0.770  -1.20076   3.60766   6.55498   1.19978   0.00000   0.000E+00   0.000E+00   1.000E+00
 106  7.00845950   0.770  -1.20473   3.60763   6.55682   1.20550   0.00000   0.000E+00   0.000E+00   1.000E+00
 107  7.01314945   0.770  -1.20856   3.60761   6.55859   1.21102   0.00000   0.000E+00   0.000E+00   1.000E+00
 108  7.01778930   0.770  -1.21229   3.60758   6.56032   1.21638   0.00000   0.000E+00   0.000E+00   1.000E+00
 109  7.02238009   0.770  -1.21602   3.60755   6.56204   1.22175   0.00000   0.000E+00   0.000E+00   1.000E+00
 110  7.02692287   0.770  -1.21974   3.60753   6.56377   1.22711   0.00000   0.000E+00   0.000E+00   1.000E+00
 111  7.03141862   0.770  -1.22347   3.60750   6.56549   1.23248   0.00000   0.000E+00   0.000E+00   1.000E+00
 112  7.03586831   0.770  -1.22708   3.60748   6.56716   1.23767   0.00000   0.000E+00   0.000E+00   1.000E+00
 113  7.04027286   0.770  -1.23058   3.60745   6.56878   1.24270   0.00000   0.000E+00   0.000E+00   1.000E+00
 114  7.04463320   0.770  -1.23408   3.60742   6.57039   1.24773   0.00000   0.000E+00   0.000E+00   1.000E+00
 115  7.04895019   0.770  -1.23758   3.60740   6.57201   1.25276   0.00000   0.000E+00   0.000E+00   1.000E+00
 116  7.05322469   0.770  -1.24108   3.60737   6.57362   1.25779   0.00000   0.000E+00   0.000E+00   1.000E+00
 117  7.05745754   0.770  -1.24455   3.60735   6.57522   1.26277   0.00000   2.703E-05   0.000E+00   1.000E+00
 118  7.06164952   0.770  -1.24783   3.60732   6.57674   1.26749   0.00000   2.020E-04   0.000E+00   9.998E-01
 119  7.06580143   0.770  -1.25112   3.60730   6.57825   1.27222   0.00000   3.770E-04   0.000E+00   9.996E-01
 120  7.06991402   0.770  -1.25440   3.60727   6.57977   1.27694   0.00000   5.519E-04   0.000E+00   9.994E-01
 121  7.07398803   0.770  -1.25768   3.60725   6.58128   1.28167   0.00000   7.269E-04   0.000E+00   9.993E-01
 122  7.07802418   0.770  -1.26097   3.60722   6.58280   1.28639   0.00000   9.019E-04   0.000E+00   9.991E-01
 123  7.08202316   0.770  -1.26416   3.60720   6.58427   1.29099   0.00000   1.000E-03   0.000E+00   9.990E-01
 124  7.08598565   0.770  -1.26725   3.60718   6.58569   1.29542   0.00000   1.000E-03   0.000E+00   9.990E-01
 125  7.08991232   0.770  -1.27033   3.60715   6.58711   1.29986   0.00000   1.000E-03   0.000E+00   9.990E-01
 126  7.09380381   0.770  -1.27341   3.60713   6.58853   1.30430   0.00000   1.000E-03   0.000E+00   9.990E-01
 127  7.09766073   0.770  -1.27649   3.60711   6.58995   1.30873   0.00000   1.000E-03   0.000E+00   9.990E-01
 128  7.10148370   0.770  -1.27957   3.60708   6.59137   1.31317   0.00000   1.000E-03   0.000E+00   9.990E-01
 129  7.10527332   0.770  -1.28259   3.60706   6.59275   1.31751   0.00000   1.000E-03   0.000E+00   9.990E-01
 130  7.10903015   0.770  -1.28548   3.60704   6.59408   1.32168   0.00000   1.000E-03   0.000E+00   9.990E-01
 131  7.11275476   0.770  -1.28837   3.60702   6.59541   1.32584   0.00000   1.000E-03   0.000E+00   9.990E-01
 132  7.11644770   0.770  -1.29127   3.60699   6.59674   1.33001   0.00000   1.000E-03   0.000E+00   9.990E-01
 133  7.12010950   0.770  -1.29416   3.60697   6.59807   1.33417   0.00000   1.000E-03   0.000E+00   9.990E-01
 134  7.12374069   0.770  -1.29705   3.60695   6.59939   1.33834   0.00000   1.000E-03   0.000E+00   9.990E-01
 135  7.12734176   0.770  -1.29994   3.60692   6.60072   1.34250   0.00000   1.000E-03   0.000E+00   9.990E-01
 136  7.13091323   0.770  -1.30268   3.60690   6.60198   1.34644   0.00000   1.000E-03   0.000E+00   9.990E-01
 137  7.13445556   0.770  -1.30539   3.60688   6.60322   1.35033   0.00000   1.000E-03   0.000E+00   9.990E-01
 138  7.13796923   0.770  -1.30811   3.60686   6.60447   1.35422   0.00000   1.000E-03   0.000E+00   9.990E-01
 139  7.14145470   0.770  -1.31082   3.60684   6.60571   1.35812   0.00000   1.000E-03   0.000E+00   9.990E-01
 140  7.14491242   0.770  -1.31353   3.60681   6.60696   1.36201   0.00000   1.000E-03   0.000E+00   9.990E-01
 141  7.14834283   0.770  -1.31624   3.60679   6.60821   1.36591   0.00000   1.000E-03   0.000E+00   9.990E-01
 142  7.15174636   0.770  -1.31896   3.60677   6.60945   1.36980   0.00000   1.000E-03   0.000E+00   9.990E-01
 143  7.15512342   0.770  -1.32151   3.60675   6.61062   1.37347   0.00000   1.000E-03   0.000E+00   9.990E-01
 144  7.15847442   0.770  -1.32406   3.60673   6.61179   1.37712   0.00000   1.000E-03   0.000E+00   9.990E-01
 145  7.16179977   0.770  -1.32660   3.60671   6.61296   1.38077   0.00000   1.000E-03   0.000E+00   9.990E-01
 146  7.16509984   0.770  -1.32914   3.60669   6.61412   1.38442   0.00000   1.000E-03   0.000E+00   9.990E-01
 147  7.16837503   0.770  -1.33169   3.60667   6.61529   1.38808   0.00000   1.000E-03   0.000E+00   9.990E-01
 148  7.17162570   0.770  -1.33423   3.60665   6.61646   1.39173   0.00000   1.000E-03   0.000E+00   9.990E-01
 149  7.17485223   0.770  -1.33678   3.60663   6.61762   1.39538   0.00000   1.000E-03   0.000E+00   9.990E-01
 150  7.17805496   0.770  -1.33923   3.60661   6.61875   1.39891   0.00000   1.073E-03   0.000E+00   9.989E-01
 151  7.18123424   0.770  -1.34161   3.60659   6.61984   1.40234   0.00000   1.200E-03   0.000E+00   9.988E-01
 152  7.18439042   0.770  -1.34400   3.60657   6.62093   1.40576   0.00000   1.327E-03   0.000E+00   9.987E-01
 153  7.18752382   0.770  -1.34638   3.60656   6.62202   1.40919   0.00000   1.455E-03   0.000E+00   9.985E-01
 154  7.19063479   0.770  -1.34877   3.60654   6.62311   1.41262   0.00000   1.582E-03   0.000E+00   9.984E-01
 155  7.19372362   0.770  -1.35115   3.60652   6.62420   1.41605   0.00000   1.709E-03   0.000E+00   9.983E-01
 156  7.19679064   0.770  -1.35354   3.60650   6.62529   1.41948   0.00000   1.836E-03   0.000E+00   9.982E-01
 157  7.19983615   0.770  -1.35592   3.60649   6.62638   1.42291   0.00000   1.963E-03   0.000E+00   9.980E-01
 158  7.20286046   0.770  -1.35820   3.60647   6.62743   1.42619   0.00000   2.000E-03   0.000E+00   9.980E-01
 159  7.20586385   0.770  -1.36043   3.60645   6.62845   1.42940   0.00000   2.000E-03   0.000E+00   9.980E-01
 160  7.20884661   0.770  -1.36267   3.60643   6.62947   1.43262   0.00000   2.000E-03   0.000E+00   9.980E-01
 161  7.21180903   0.770  -1.36490   3.60641   6.63050   1.43583   0.00000   2.000E-03   0.000E+00   9.980E-01
 162  7.21475137   0.770  -1.36714   3.60640   6.63152   1.43905   0.00000   2.000E-03   0.000E+00   9.980E-01
 163  7.21767392   0.770  -1.36937   3.60638   6.63254   1.44226   0.00000   2.000E-03   0.000E+00   9.980E-01
 164  7.22057693   0.770  -1.37160   3.60636   6.63356   1.44548   0.00000   2.000E-03   0.000E+00   9.980E-01
 165  7.22346066   0.770  -1.37384   3.60634   6.63459   1.44869   0.00000   2.000E-03   0.000E+00   9.980E-01
 166  7.22632538   0.770  -1.37603   3.60632   6.63559   1.45185   0.00000   2.036E-03   0.000E+00   9.980E-01
 167  7.22917132   0.770  -1.37812   3.60631   6.63655   1.45487   0.00000   2.148E-03   0.000E+00   9.979E-01
 168  7.23199873   0.770  -1.38021   3.60629   6.63750   1.45788   0.00000   2.260E-03   0.000E+00   9.977E-01
 169  7.23480785   0.770  -1.38231   3.60628   6.63846   1.46090   0.00000   2.371E-03   0.000E+00   9.976E-01
 170  7.23759892   0.770  -1.38440   3.60626   6.63942   1.46392   0.00000   2.483E-03   0.000E+00   9.975E-01
 171  7.24037217   0.770  -1.38650   3.60625   6.64038   1.46694   0.00000   2.595E-03   0.000E+00   9.974E-01
 172  7.24312782   0.770  -1.38859   3.60623   6.64133   1.46996   0.00000   2.707E-03   0.000E+00   9.973E-01
 173  7.24586609   0.770  -1.39068   3.60622   6.64229   1.47298   0.00000   2.818E-03   0.000E+00   9.972E-01
 174  7.24858721   0.770  -1.39278   3.60620   6.64325   1.47600   0.00000   2.930E-03   0.000E+00   9.971E-01
 175  7.25129138   0.770  -1.39482   3.60618   6.64418   1.47895   0.00000   3.000E-03   0.000E+00   9.970E-01
 176  7.25397883   0.770  -1.39678   3.60617   6.64508   1.48178   0.00000   3.000E-03   0.000E+00   9.970E-01
 177  7.25664974   0.770  -1.39874   3.60616   6.64598   1.48462   0.00000   3.000E-03   0.000E+00   9.970E-01
 178  7.25930433   0.770  -1.40070   3.60614   6.64688   1.48745   0.00000   3.000E-03   0.000E+00   9.970E-01
 179  7.26194279   0.770  -1.40266   3.60613   6.64777   1.49029   0.00000   3.000E-03   0.000E+00   9.970E-01
 180  7.26456531   0.770  -1.40462   3.60612   6.64867   1.49312   0.00000   3.000E-03   0.000E+00   9.970E-01
 181  7.26717210   0.770  -1.40658   3.60610   6.64957   1.49596   0.00000   3.000E-03   0.000E+00   9.970E-01
 182  7.26976333   0.770  -1.40854   3.60609   6.65046   1.49879   0.00000   3.000E-03   0.000E+00   9.970E-01
 183  7.27233920   0.770  -1.41050   3.60608   6.65136   1.50163   0.00000   3.000E-03   0.000E+00   9.970E-01
 184  7.27489987   0.770  -1.41246   3.60606   6.65226   1.50447   0.00000   3.000E-03   0.000E+00   9.970E-01
 185  7.27744554   0.770  -1.41432   3.60605   6.65311   1.50715   0.00000   3.080E-03   0.000E+00   9.969E-01
 186  7.27997637   0.770  -1.41616   3.60604   6.65395   1.50980   0.00000   3.178E-03   0.000E+00   9.968E-01
 187  7.28249254   0.770  -1.41799   3.60602   6.65479   1.51245   0.00000   3.276E-03   0.000E+00   9.967E-01
 188  7.28499421   0.770  -1.41983   3.60601   6.65563   1.51510   0.00000   3.374E-03   0.000E+00   9.966E-01
 189  7.28748156   0.770  -1.42166   3.60599   6.65647   1.51775   0.00000   3.472E-03   0.000E+00   9.965E-01
 190  7.28995474   0.770  -1.42350   3.60598   6.65731   1.52040   0.00000   3.570E-03   0.000E+00   9.964E-01
 191  7.29241392   0.770  -1.42533   3.60597   6.65815   1.52305   0.00000   3.668E-03   0.000E+00   9.963E-01
 192  7.29485925   0.770  -1.42716   3.60595   6.65899   1.52570   0.00000   3.766E-03   0.000E+00   9.962E-01
 193  7.29729089   0.770  -1.42900   3.60594   6.65983   1.52835   0.00000   3.864E-03   0.000E+00   9.961E-01
 194  7.29970899   0.770  -1.43083   3.60593   6.66067   1.53100   0.00000   3.962E-03   0.000E+00   9.960E-01
 195  7.30211370   0.770  -1.43260   3.60591   6.66147   1.53355   0.00000   4.113E-03   0.000E+00   9.959E-01
 196  7.30450517   0.770  -1.43431   3.60590   6.66226   1.53603   0.00000   4.296E-03   0.000E+00   9.957E-01
 197  7.30688354   0.770  -1.43603   3.60589   6.66305   1.53851   0.00000   4.480E-03   0.000E+00   9.955E-01
 198  7.30924896   0.770  -1.43775   3.60588   6.66383   1.54099   0.00000   4.663E-03   0.000E+00   9.953E-01
 199  7.31160157   0.770  -1.43946   3.60587   6.66462   1.54347   0.00000   4.847E-03   0.000E+00   9.952E-01
 200  7.31394149   0.770  -1.44118   3.60586   6.66541   1.54595   0.00000   5.030E-03   0.000E+00   9.950E-01
 201  7.31626888   0.770  -1.44290   3.60585   6.66619   1.54843   0.00000   5.214E-03   0.000E+00   9.948E-01
 202  7.31858387   0.770  -1.44461   3.60584   6.66698   1.55091   0.00000   5.397E-03   0.000E+00   9.946E-01
 203  7.32088658   0.770  -1.44633   3.60583   6.66776   1.55339   0.00000   5.581E-03   0.000E+00   9.944E-01
 204  7.32317714   0.770  -1.44805   3.60581   6.66855   1.55587   0.00000   5.764E-03   0.000E+00   9.942E-01
 205  7.32545569   0.770  -1.44976   3.60580   6.66934   1.55836   0.00000   5.948E-03   0.000E+00   9.941E-01
 206  7.32772234   0.770  -1.45140   3.60579   6.67009   1.56073   0.00000   6.061E-03   0.000E+00   9.939E-01
 207  7.32997723   0.770  -1.45301   3.60578   6.67082   1.56305   0.00000   6.147E-03   0.000E+00   9.939E-01
 208  7.33222047   0.770  -1.45461   3.60577   6.67155   1.56538   0.00000   6.233E-03   0.000E+00   9.938E-01
 209  7.33445218   0.770  -1.45622   3.60576   6.67229   1.56771   0.00000   6.319E-03   0.000E+00   9.937E-01
 210  7.33667248   0.770  -1.45783   3.60576   6.67302   1.57003   0.00000   6.405E-03   0.000E+00   9.936E-01
 211  7.33888149   0.770  -1.45943   3.60575   6.67376   1.57236   0.00000   6.491E-03   0.000E+00   9.935E-01
 212  7.34107932   0.770  -1.46104   3.60574   6.67449   1.57469   0.00000   6.577E-03   0.000E+00   9.934E-01
 213  7.34326608   0.770  -1.46264   3.60573   6.67522   1.57701   0.00000   6.662E-03   0.000E+00   9.933E-01
 214  7.34544188   0.770  -1.46425   3.60572   6.67596   1.57934   0.00000   6.748E-03   0.000E+00   9.933E-01
 215  7.34760684   0.770  -1.46586   3.60571   6.67669   1.58167   0.00000   6.834E-03   0.000E+00   9.932E-01
 216  7.34976107   0.770  -1.46746   3.60570   6.67743   1.58399   0.00000   6.920E-03   0.000E+00   9.931E-01
 217  7.35190466   0.770  -1.46906   3.60569   6.67816   1.58631   0.00000   7.011E-03   0.000E+00   9.930E-01
 218  7.35403772   0.770  -1.47056   3.60568   6.67884   1.58849   0.00000   7.172E-03   0.000E+00   9.928E-01
 219  7.35616035   0.770  -1.47206   3.60567   6.67953   1.59067   0.00000   7.332E-03   0.000E+00   9.927E-01
 220  7.35827266   0.770  -1.47356   3.60566   6.68022   1.59286   0.00000   7.493E-03   0.000E+00   9.925E-01
 221  7.36037475   0.770  -1.47507   3.60565   6.68090   1.59504   0.00000   7.653E-03   0.000E+00   9.923E-01
 222  7.36246671   0.770  -1.47657   3.60565   6.68159   1.59722   0.00000   7.814E-03   0.000E+00   9.922E-01
 223  7.36454864   0.770  -1.47807   3.60564   6.68228   1.59940   0.00000   7.974E-03   0.000E+00   9.920E-01
 224  7.36662064   0.770  -1.47957   3.60563   6.68296   1.60159   0.00000   8.135E-03   0.000E+00   9.919E-01
 225  7.36868280   0.770  -1.48107   3.60562   6.68365   1.60377   0.00000   8.296E-03   0.000E+00   9.917E-01
 226  7.37073522   0.770  -1.48257   3.60561   6.68434   1.60595   0.00000   8.456E-03   0.000E+00   9.915E-01
 227  7.37277798   0.770  -1.48407   3.60560   6.68502   1.60813   0.00000   8.617E-03   0.000E+00   9.914E-01
 228  7.37481118   0.770  -1.48557   3.60559   6.68571   1.61031   0.00000   8.777E-03   0.000E+00   9.912E-01
 229  7.37683490   0.770  -1.48707   3.60558   6.68639   1.61250   0.00000   8.938E-03   0.000E+00   9.911E-01
 230  7.37884924   0.770  -1.48851   3.60558   6.68705   1.61459   0.00000   9.092E-03   0.000E+00   9.909E-01
 231  7.38085428   0.770  -1.48991   3.60557   6.68770   1.61664   0.00000   9.242E-03   0.000E+00   9.908E-01
 232  7.38285010   0.770  -1.49131   3.60556   6.68834   1.61868   0.00000   9.392E-03   0.000E+00   9.906E-01
 233  7.38483680   0.770  -1.49271   3.60555   6.68898   1.62073   0.00000   9.542E-03   0.000E+00   9.905E-01
 234  7.38681444   0.770  -1.49412   3.60555   6.68962   1.62277   0.00000   9.692E-03   0.000E+00   9.903E-01
 235  7.38878313   0.770  -1.49552   3.60554   6.69026   1.62481   0.00000   9.842E-03   0.000E+00   9.902E-01
 236  7.39074293   0.770  -1.49692   3.60553   6.69090   1.62686   0.00000   9.992E-03   0.000E+00   9.900E-01
 237  7.39269392   0.770  -1.49832   3.60552   6.69154   1.62890   0.00000   1.014E-02   0.000E+00   9.899E-01
 238  7.39463619   0.770  -1.49972   3.60552   6.69219   1.63095   0.00000   1.029E-02   0.000E+00   9.897E-01
 239  7.39656981   0.770  -1.50113   3.60551   6.69283   1.63299   0.00000   1.044E-02   0.000E+00   9.896E-01
 240  7.39849486   0.770  -1.50253   3.60550   6.69347   1.63503   0.00000   1.059E-02   0.000E+00   9.894E-01
 241  7.40041142   0.770  -1.50393   3.60549   6.69411   1.63708   0.00000   1.074E-02   0.000E+00   9.893E-01
 242  7.40231955   0.770  -1.50533   3.60549   6.69475   1.63912   0.00000   1.089E-02   0.000E+00   9.891E-01
 243  7.40421934   0.770  -1.50671   3.60548   6.69538   1.64113   0.00000   1.106E-02   0.000E+00   9.889E-01
 244  7.40611085   0.770  -1.50801   3.60547   6.69598   1.64304   0.00000   1.127E-02   0.000E+00   9.887E-01
 245  7.40799416   0.770  -1.50932   3.60546   6.69658   1.64494   0.00000   1.148E-02   0.000E+00   9.885E-01
 246  7.40986934   0.770  -1.51063   3.60546   6.69718   1.64685   0.00000   1.169E-02   0.000E+00   9.883E-01
 247  7.41173646   0.770  -1.51194   3.60545   6.69778   1.64876   0.00000   1.190E-02   0.000E+00   9.881E-01
 248  7.41359558   0.770  -1.51325   3.60544   6.69837   1.65067   0.00000   1.211E-02   0.000E+00   9.879E-01
 249  7.41544678   0.770  -1.51456   3.60544   6.69897   1.65258   0.00000   1.232E-02   0.000E+00   9.877E-01
 250  7.41729012   0.770  -1.51587   3.60543   6.69957   1.65449   0.00000   1.253E-02   0.000E+00   9.875E-01
 251  7.41912567   0.770  -1.51717   3.60542   6.70017   1.65640   0.00000   1.274E-02   0.000E+00   9.873E-01
 252  7.42095350   0.770  -1.51848   3.60541   6.70077   1.65830   0.00000   1.295E-02   0.000E+00   9.870E-01
 253  7.42277367   0.770  -1.51979   3.60541   6.70137   1.66021   0.00000   1.316E-02   0.000E+00   9.868E-01
 254  7.42458623   0.770  -1.52110   3.60540   6.70197   1.66212   0.00000   1.337E-02   0.000E+00   9.866E-01
 255  7.42639127   0.770  -1.52241   3.60539   6.70256   1.66403   0.00000   1.358E-02   0.000E+00   9.864E-01
 256  7.42818883   0.770  -1.52372   3.60539   6.70316   1.66594   0.00000   1.379E-02   0.000E+00   9.862E-01
 257  7.42997899   0.770  -1.52502   3.60538   6.70376   1.66784   0.00000   1.401E-02   0.000E+00   9.860E-01
 258  7.43176179   0.770  -1.52624   3.60537   6.70432   1.66963   0.00000   1.427E-02   0.000E+00   9.857E-01
 259  7.43353731   0.770  -1.52747   3.60537   6.70488   1.67141   0.00000   1.453E-02   0.000E+00   9.855E-01
 260  7.43530560   0.770  -1.52869   3.60536   6.70544   1.67319   0.00000   1.479E-02   0.000E+00   9.852E-01
 261  7.43706672   0.770  -1.52991   3.60536   6.70599   1.67497   0.00000   1.505E-02   0.000E+00   9.849E-01
 262  7.43882072   0.770  -1.53113   3.60535   6.70655   1.67676   0.00000   1.531E-02   0.000E+00   9.847E-01
 263  7.44056767   0.770  -1.53235   3.60535   6.70711   1.67854   0.00000   1.558E-02   0.000E+00   9.844E-01
 264  7.44230762   0.770  -1.53357   3.60534   6.70767   1.68032   0.00000   1.584E-02   0.000E+00   9.842E-01
 265  7.44404063   0.770  -1.53479   3.60534   6.70823   1.68210   0.00000   1.610E-02   0.000E+00   9.839E-01
 266  7.44576675   0.770  -1.53601   3.60533   6.70879   1.68388   0.00000   1.636E-02   0.000E+00   9.836E-01
 267  7.44748603   0.770  -1.53723   3.60533   6.70934   1.68567   0.00000   1.662E-02   0.000E+00   9.834E-01
 268  7.44919854   0.770  -1.53845   3.60532   6.70990   1.68745   0.00000   1.688E-02   0.000E+00   9.831E-01
 269  7.45090432   0.770  -1.53967   3.60532   6.71046   1.68923   0.00000   1.715E-02   0.000E+00   9.829E-01
 270  7.45260343   0.770  -1.54089   3.60531   6.71102   1.69101   0.00000   1.741E-02   0.000E+00   9.826E-01
 271  7.45429591   0.770  -1.54211   3.60531   6.71158   1.69279   0.00000   1.767E-02   0.000E+00   9.823E-01
 272  7.45598183   0.770  -1.54333   3.60530   6.71213   1.69458   0.00000   1.793E-02   0.000E+00   9.821E-01
 273  7.45766122   0.770  -1.54449   3.60530   6.71266   1.69627   0.00000   1.818E-02   0.000E+00   9.818E-01
 274  7.45933415   0.770  -1.54563   3.60529   6.71319   1.69794   0.00000   1.842E-02   0.000E+00   9.816E-01
 275  7.46100066   0.770  -1.54677   3.60529   6.71371   1.69960   0.00000   1.867E-02   0.000E+00   9.813E-01
 276  7.46266079   0.770  -1.54791   3.60528   6.71423   1.70127   0.00000   1.891E-02   0.000E+00   9.811E-01
 277  7.46431461   0.770  -1.54904   3.60528   6.71475   1.70293   0.00000   1.916E-02   0.000E+00   9.808E-01
 278  7.46596215   0.770  -1.55018   3.60527   6.71527   1.70460   0.00000   1.940E-02   0.000E+00   9.806E-01
 279  7.46760346   0.770  -1.55132   3.60527   6.71579   1.70626   0.00000   1.964E-02   0.000E+00   9.804E-01
 280  7.46923860   0.770  -1.55246   3.60526   6.71631   1.70793   0.00000   1.989E-02   0.000E+00   9.801E-01
 281  7.47086760   0.770  -1.55360   3.60526   6.71683   1.70959   0.00000   2.013E-02   0.000E+00   9.799E-01
 282  7.47249051   0.770  -1.55473   3.60525   6.71735   1.71126   0.00000   2.038E-02   0.000E+00   9.796E-01
 283  7.47410738   0.770  -1.55587   3.60525   6.71787   1.71292   0.00000   2.062E-02   0.000E+00   9.794E-01
 284  7.47571826   0.770  -1.55701   3.60524   6.71839   1.71459   0.00000   2.087E-02   0.000E+00   9.791E-01
 285  7.47732318   0.770  -1.55815   3.60524   6.71891   1.71625   0.00000   2.111E-02   0.000E+00   9.789E-01
 286  7.47892219   0.770  -1.55929   3.60523   6.71943   1.71792   0.00000   2.135E-02   0.000E+00   9.786E-01
 287  7.48051534   0.770  -1.56042   3.60523   6.71995   1.71958   0.00000   2.160E-02   0.000E+00   9.784E-01
 288  7.48210266   0.770  -1.56156   3.60522   6.72047   1.72125   0.00000   2.184E-02   0.000E+00   9.782E-01
 289  7.48368421   0.770  -1.56267   3.60522   6.72098   1.72288   0.00000   2.212E-02   0.000E+00   9.779E-01
 290  7.48526001   0.770  -1.56373   3.60522   6.72146   1.72443   0.00000   2.246E-02   0.000E+00   9.775E-01
 291  7.48683012   0.770  -1.56479   3.60521   6.72195   1.72598   0.00000   2.280E-02   0.000E+00   9.772E-01
 292  7.48839457   0.770  -1.56585   3.60521   6.72243   1.72753   0.00000   2.314E-02   0.000E+00   9.769E-01
 293  7.48995341   0.770  -1.56690   3.60521   6.72291   1.72909   0.00000   2.349E-02   0.000E+00   9.765E-01
 294  7.49150667   0.770  -1.56796   3.60520   6.72340   1.73064   0.00000   2.383E-02   0.000E+00   9.762E-01
 295  7.49305439   0.770  -1.56902   3.60520   6.72388   1.73219   0.00000   2.417E-02   0.000E+00   9.758E-01
 296  7.49459662   0.770  -1.57008   3.60519   6.72436   1.73375   0.00000   2.451E-02   0.000E+00   9.755E-01
 297  7.49613340   0.770  -1.57114   3.60519   6.72485   1.73530   0.00000   2.485E-02   0.000E+00   9.751E-01
 298  7.49766475   0.770  -1.57219   3.60519   6.72533   1.73685   0.00000   2.519E-02   0.000E+00   9.748E-01
 299  7.49919072   0.770  -1.57325   3.60518   6.72582   1.73841   0.00000   2.553E-02   0.000E+00   9.745E-01
 300  7.50071135   0.770  -1.57431   3.60518   6.72630   1.73996   0.00000   2.587E-02   0.000E+00   9.741E-01
 301  7.50222668   0.770  -1.57537   3.60518   6.72678   1.74151   0.00000   2.622E-02   0.000E+00   9.738E-01
 302  7.50373673   0.770  -1.57643   3.60517   6.72727   1.74307   0.00000   2.656E-02   0.000E+00   9.734E-01
 303  7.50524155   0.770  -1.57749   3.60517   6.72775   1.74462   0.00000   2.690E-02   0.000E+00   9.731E-01
 304  7.50674118   0.770  -1.57854   3.60517   6.72823   1.74617   0.00000   2.724E-02   0.000E+00   9.728E-01
 305  7.50823565   0.770  -1.57960   3.60516   6.72872   1.74773   0.00000   2.758E-02   0.000E+00   9.724E-01
 306  7.50972499   0.770  -1.58066   3.60516   6.72920   1.74928   0.00000   2.792E-02   0.000E+00   9.721E-01
 307  7.51120924   0.770  -1.58166   3.60516   6.72966   1.75075   0.00000   2.829E-02   0.000E+00   9.717E-01
 308  7.51268844   0.770  -1.58265   3.60515   6.73011   1.75220   0.00000   2.866E-02   0.000E+00   9.713E-01
 309  7.51416261   0.770  -1.58363   3.60515   6.73056   1.75365   0.00000   2.903E-02   0.000E+00   9.710E-01
 310  7.51563180   0.770  -1.58461   3.60515   6.73101   1.75510   0.00000   2.940E-02   0.000E+00   9.706E-01
 311  7.51709603   0.770  -1.58560   3.60514   6.73146   1.75655   0.00000   2.977E-02   0.000E+00   9.702E-01
 312  7.51855535   0.770  -1.58658   3.60514   6.73191   1.75800   0.00000   3.014E-02   0.000E+00   9.699E-01
 313  7.52000978   0.770  -1.58757   3.60514   6.73236   1.75945   0.00000   3.051E-02   0.000E+00   9.695E-01
 314  7.52145935   0.770  -1.58855   3.60514   6.73281   1.76090   0.00000   3.088E-02   0.000E+00   9.691E-01
 315  7.52290410   0.770  -1.58954   3.60513   6.73326   1.76235   0.00000   3.125E-02   0.000E+00   9.687E-01
 316  7.52434406   0.770  -1.59052   3.60513   6.73371   1.76380   0.00000   3.162E-02   0.000E+00   9.684E-01
 317  7.52577926   0.770  -1.59151   3.60513   6.73416   1.76525   0.00000   3.199E-02   0.000E+00   9.680E-01
 318  7.52720974   0.770  -1.59249   3.60512   6.73461   1.76670   0.00000   3.236E-02   0.000E+00   9.676E-01
 319  7.52863551   0.770  -1.59347   3.60512   6.73506   1.76815   0.00000   3.273E-02   0.000E+00   9.673E-01
 320  7.53005663   0.770  -1.59446   3.60512   6.73551   1.76960   0.00000   3.310E-02   0.000E+00   9.669E-01
 321  7.53147310   0.770  -1.59544   3.60511   6.73596   1.77105   0.00000   3.347E-02   0.000E+00   9.665E-01
 322  7.53288498   0.770  -1.59643   3.60511   6.73641   1.77250   0.00000   3.384E-02   0.000E+00   9.662E-01
 323  7.53429227   0.770  -1.59741   3.60511   6.73686   1.77395   0.00000   3.421E-02   0.000E+00   9.658E-01
 324  7.53569503   0.770  -1.59840   3.60510   6.73731   1.77539   0.00000   3.458E-02   0.000E+00   9.654E-01
 325  7.53709326   0.770  -1.59938   3.60510   6.73776   1.77684   0.00000   3.496E-02   0.000E+00   9.650E-01
 326  7.53848701   0.770  -1.60030   3.60510   6.73818   1.77820   0.00000   3.535E-02   0.000E+00   9.647E-01
 327  7.53987630   0.770  -1.60122   3.60510   6.73859   1.77955   0.00000   3.574E-02   0.000E+00   9.643E-01
 328  7.54126116   0.770  -1.60213   3.60509   6.73901   1.78089   0.00000   3.613E-02   0.000E+00   9.639E-01
 329  7.54264162   0.770  -1.60304   3.60509   6.73943   1.78224   0.00000   3.653E-02   0.000E+00   9.635E-01
 330  7.54401770   0.770  -1.60396   3.60509   6.73984   1.78358   0.00000   3.692E-02   0.000E+00   9.631E-01
 331  7.54538944   0.770  -1.60487   3.60509   6.74026   1.78493   0.00000   3.731E-02   0.000E+00   9.627E-01
 332  7.54675686   0.770  -1.60578   3.60508   6.74068   1.78627   0.00000   3.771E-02   0.000E+00   9.623E-01
 333  7.54811999   0.770  -1.60670   3.60508   6.74109   1.78762   0.00000   3.810E-02   0.000E+00   9.619E-01
 334  7.54947885   0.770  -1.60761   3.60508   6.74151   1.78896   0.00000   3.850E-02   0.000E+00   9.615E-01
 335  7.55083347   0.770  -1.60852   3.60508   6.74193   1.79031   0.00000   3.889E-02   0.000E+00   9.611E-01
 336  7.55218388   0.770  -1.60944   3.60507   6.74234   1.79165   0.00000   3.928E-02   0.000E+00   9.607E-01
 337  7.55353011   0.770  -1.61035   3.60507   6.74276   1.79300   0.00000   3.968E-02   0.000E+00   9.603E-01
 338  7.55487217   0.770  -1.61126   3.60507   6.74318   1.79434   0.00000   4.007E-02   0.000E+00   9.599E-01
 339  7.55621010   0.770  -1.61218   3.60507   6.74360   1.79569   0.00000   4.046E-02   0.000E+00   9.595E-01
 340  7.55754392   0.770  -1.61309   3.60506   6.74401   1.79703   0.00000   4.086E-02   0.000E+00   9.591E-01
 341  7.55887366   0.770  -1.61400   3.60506   6.74443   1.79838   0.00000   4.125E-02   0.000E+00   9.587E-01
 342  7.56019934   0.770  -1.61492   3.60506   6.74485   1.79972   0.00000   4.165E-02   0.000E+00   9.584E-01
 343  7.56152098   0.770  -1.61583   3.60506   6.74526   1.80107   0.00000   4.204E-02   0.000E+00   9.580E-01
 344  7.56283861   0.770  -1.61674   3.60505   6.74568   1.80241   0.00000   4.243E-02   0.000E+00   9.576E-01
 345  7.56415226   0.770  -1.61766   3.60505   6.74610   1.80376   0.00000   4.283E-02   0.000E+00   9.572E-01
 346  7.56546195   0.770  -1.61853   3.60505   6.74650   1.80505   0.00000   4.328E-02   0.000E+00   9.567E-01
 347  7.56676770   0.770  -1.61938   3.60505   6.74688   1.80629   0.00000   4.378E-02   0.000E+00   9.562E-01
 348  7.56806953   0.770  -1.62022   3.60504   6.74727   1.80754   0.00000   4.429E-02   0.000E+00   9.557E-01
 349  7.56936748   0.770  -1.62107   3.60504   6.74765   1.80878   0.00000   4.479E-02   0.000E+00   9.552E-01
 350  7.57066156   0.770  -1.62191   3.60504   6.74804   1.81003   0.00000   4.529E-02   0.000E+00   9.547E-01
 351  7.57195179   0.770  -1.62276   3.60504   6.74842   1.81128   0.00000   4.579E-02   0.000E+00   9.542E-01
 352  7.57323820   0.770  -1.62360   3.60504   6.74881   1.81252   0.00000   4.629E-02   0.000E+00   9.537E-01
 353  7.57452081   0.770  -1.62445   3.60503   6.74920   1.81377   0.00000   4.680E-02   0.000E+00   9.532E-01
 354  7.57579965   0.770  -1.62529   3.60503   6.74958   1.81501   0.00000   4.730E-02   0.000E+00   9.527E-01
 355  7.57707473   0.770  -1.62614   3.60503   6.74997   1.81626   0.00000   4.780E-02   0.000E+00   9.522E-01
 356  7.57834607   0.770  -1.62698   3.60503   6.75035   1.81751   0.00000   4.830E-02   0.000E+00   9.517E-01
 357  7.57961371   0.770  -1.62783   3.60502   6.75074   1.81875   0.00000   4.881E-02   0.000E+00   9.512E-01
 358  7.58087766   0.770  -1.62867   3.60502   6.75113   1.82000   0.00000   4.931E-02   0.000E+00   9.507E-01
 359  7.58213794   0.770  -1.62952   3.60502   6.75151   1.82125   0.00000   4.981E-02   0.000E+00   9.502E-01
 360  7.58339457   0.770  -1.63036   3.60502   6.75190   1.82249   0.00000   5.031E-02   0.000E+00   9.497E-01
 361  7.58464758   0.770  -1.63121   3.60501   6.75228   1.82374   0.00000   5.081E-02   0.000E+00   9.492E-01
 362  7.58589698   0.770  -1.63205   3.60501   6.75267   1.82498   0.00000   5.132E-02   0.000E+00   9.487E-01
 363  7.58714280   0.770  -1.63290   3.60501   6.75305   1.82623   0.00000   5.182E-02   0.000E+00   9.482E-01
 364  7.58838505   0.770  -1.63375   3.60501   6.75344   1.82748   0.00000   5.232E-02   0.000E+00   9.477E-01
 365  7.58962376   0.770  -1.63459   3.60501   6.75383   1.82872   0.00000   5.282E-02   0.000E+00   9.472E-01
 366  7.59085895   0.770  -1.63544   3.60500   6.75421   1.82997   0.00000   5.333E-02   0.000E+00   9.467E-01
 367  7.59209064   0.770  -1.63628   3.60500   6.75460   1.83121   0.00000   5.383E-02   0.000E+00   9.462E-01
 368  7.59331884   0.770  -1.63708   3.60500   6.75496   1.83240   0.00000   5.439E-02   0.000E+00   9.456E-01
 369  7.59454358   0.770  -1.63786   3.60500   6.75532   1.83355   0.00000   5.498E-02   0.000E+00   9.450E-01
 370  7.59576487   0.770  -1.63864   3.60500   6.75567   1.83470   0.00000   5.557E-02   0.000E+00   9.444E-01
 371  7.59698274   0.770  -1.63943   3.60499   6.75603   1.83585   0.00000   5.616E-02   0.000E+00   9.438E-01
 372  7.59819721   0.770  -1.64021   3.60499   6.75639   1.83701   0.00000   5.676E-02   0.000E+00   9.432E-01
 373  7.59940828   0.770  -1.64099   3.60499   6.75674   1.83816   0.00000   5.735E-02   0.000E+00   9.427E-01
 374  7.60061599   0.770  -1.64177   3.60499   6.75710   1.83931   0.00000   5.794E-02   0.000E+00   9.421E-01
 375  7.60182035   0.770  -1.64255   3.60499   6.75745   1.84046   0.00000   5.853E-02   0.000E+00   9.415E-01
 376  7.60302138   0.770  -1.64333   3.60499   6.75781   1.84162   0.00000   5.912E-02   0.000E+00   9.409E-01
 377  7.60421910   0.770  -1.64411   3.60498   6.75816   1.84277   0.00000   5.972E-02   0.000E+00   9.403E-01
 378  7.60541352   0.770  -1.64489   3.60498   6.75852   1.84392   0.00000   6.031E-02   0.000E+00   9.397E-01
 379  7.60660467   0.770  -1.64567   3.60498   6.75887   1.84507   0.00000   6.090E-02   0.000E+00   9.391E-01
 380  7.60779256   0.770  -1.64645   3.60498   6.75923   1.84623   0.00000   6.149E-02   0.000E+00   9.385E-01
 381  7.60897721   0.770  -1.64723   3.60498   6.75959   1.84738   0.00000   6.208E-02   0.000E+00   9.379E-01
 382  7.61015864   0.770  -1.64801   3.60498   6.75994   1.84853   0.00000   6.267E-02   0.000E+00   9.373E-01
 383  7.61133686   0.770  -1.64879   3.60497   6.76030   1.84968   0.00000   6.327E-02   0.000E+00   9.367E-01
 384  7.61251189   0.770  -1.64957   3.60497   6.76065   1.85083   0.00000   6.386E-02   0.000E+00   9.361E-01
 385  7.61368375   0.770  -1.65036   3.60497   6.76101   1.85199   0.00000   6.445E-02   0.000E+00   9.356E-01
 386  7.61485246   0.770  -1.65114   3.60497   6.76136   1.85314   0.00000   6.504E-02   0.000E+00   9.350E-01
 387  7.61601804   0.770  -1.65192   3.60497   6.76172   1.85429   0.00000   6.563E-02   0.000E+00   9.344E-01
 388  7.61718049   0.770  -1.65270   3.60497   6.76207   1.85544   0.00000   6.622E-02   0.000E+00   9.338E-01
 389  7.61833984   0.770  -1.65348   3.60496   6.76243   1.85660   0.00000   6.682E-02   0.000E+00   9.332E-01
 390  7.61949610   0.770  -1.65426   3.60496   6.76278   1.85775   0.00000   6.741E-02   0.000E+00   9.326E-01
 391  7.62064930   0.770  -1.65504   3.60496   6.76314   1.85890   0.00000   6.800E-02   0.000E+00   9.320E-01
 392  7.70794420   0.770  -1.71002   3.60489   6.78813   1.94033   0.00000   1.301E-01   0.000E+00   8.699E-01
 393  7.78059504   0.770  -1.75189   3.60486   6.80687   2.00213   0.00000   2.143E-01   0.000E+00   7.857E-01
 394  7.84281639   0.770  -1.78427   3.60484   6.82137   2.05025   0.00000   3.123E-01   0.000E+00   6.877E-01
 395  7.89723020   0.770  -1.80882   3.60483   6.83230   2.08685   0.00000   4.156E-01   0.000E+00   5.844E-01
 396  7.94557921   0.770  -1.82762   3.60482   6.84064   2.11494   0.00000   5.146E-01   0.000E+00   4.854E-01
 397  7.98908078   0.770  -1.84150   3.60481   6.84679   2.13563   0.00000   6.034E-01   0.000E+00   3.966E-01
 398  8.02861896   0.770  -1.85170   3.60480   6.85127   2.15072   0.00000   6.784E-01   0.000E+00   3.216E-01
 399  8.06485603   0.770  -1.85997   3.60479   6.85490   2.16291   0.00000   7.439E-01   0.000E+00   2.561E-01
 400  8.09830099   0.770  -1.86514   3.60478   6.85716   2.17056   0.00000   7.898E-01   0.000E+00   2.102E-01
 401  8.12935350   0.770  -1.87031   3.60478   6.85943   2.17820   0.00000   8.357E-01   0.000E+00   1.643E-01
 402  8.15833312   0.770  -1.87294   3.60477   6.86058   2.18207   0.00000   8.616E-01   0.000E+00   1.385E-01
 403  8.18549935   0.770  -1.87538   3.60477   6.86164   2.18566   0.00000   8.860E-01   0.000E+00   1.142E-01
 404  8.21106585   0.770  -1.87781   3.60476   6.86270   2.18924   0.00000   9.103E-01   0.000E+00   8.995E-02
 405  8.23521058   0.770  -1.87939   3.60476   6.86339   2.19156   0.00000   9.264E-01   0.000E+00   7.385E-02
 406  8.25808338   0.770  -1.88029   3.60476   6.86379   2.19289   0.00000   9.362E-01   0.000E+00   6.415E-02
 407  8.27981158   0.770  -1.88119   3.60476   6.86418   2.19423   0.00000   9.459E-01   0.000E+00   5.445E-02
 408  8.30050429   0.770  -1.88210   3.60476   6.86458   2.19556   0.00000   9.556E-01   0.000E+00   4.474E-02
 409  8.32025575   0.770  -1.88300   3.60476   6.86498   2.19690   0.00000   9.653E-01   0.000E+00   3.504E-02
 410  8.33914786   0.770  -1.88357   3.60476   6.86523   2.19774   0.00000   9.715E-01   0.000E+00   2.883E-02
 411  8.35725229   0.770  -1.88381   3.60476   6.86534   2.19811   0.00000   9.744E-01   0.000E+00   2.594E-02
 412  8.37463211   0.770  -1.88406   3.60476   6.86546   2.19848   0.00000   9.773E-01   0.000E+00   2.306E-02
 413  8.39134310   0.770  -1.88431   3.60476   6.86557   2.19884   0.00000   9.802E-01   0.000E+00   2.018E-02
 414  8.40743483   0.770  -1.88455   3.60476   6.86568   2.19921   0.00000   9.831E-01   0.000E+00   1.730E-02
 415  8.42295156   0.770  -1.88480   3.60476   6.86580   2.19958   0.00000   9.860E-01   0.000E+00   1.442E-02
 416  8.43793297   0.770  -1.88505   3.60476   6.86591   2.19995   0.00000   9.889E-01   0.000E+00   1.154E-02
 417  8.45241477   0.770  -1.88529   3.60476   6.86602   2.20032   0.00000   9.918E-01   0.000E+00   8.660E-03
 418  8.46642921   0.769  -1.88534   3.60476   6.86605   2.20039   0.00000   9.926E-01   0.000E+00   7.886E-03
 419  8.48000551   0.769  -1.88538   3.60476   6.86607   2.20045   0.00000   9.932E-01   0.000E+00   7.252E-03
 420  8.49317024   0.769  -1.88541   3.60476   6.86610   2.20051   0.00000   9.938E-01   0.000E+00   6.618E-03
 421  8.50594762   0.769  -1.88545   3.60476   6.86612   2.20057   0.00000   9.944E-01   0.000E+00   5.985E-03
 422  8.51835980   0.769  -1.88548   3.60476   6.86614   2.20062   0.00000   9.950E-01   0.000E+00   5.351E-03
 423  8.53042707   0.769  -1.88552   3.60477   6.86617   2.20068   0.00000   9.957E-01   0.000E+00   4.717E-03
 424  8.54216809   0.769  -1.88555   3.60477   6.86619   2.20074   0.00000   9.963E-01   0.000E+00   4.084E-03
 425  8.55360003   0.769  -1.88559   3.60477   6.86621   2.20079   0.00000   9.969E-01   0.000E+00   3.450E-03
 426  8.56473875   0.769  -1.88562   3.60477   6.86623   2.20085   0.00000   9.975E-01   0.000E+00   2.816E-03
 427  8.57559891   0.769  -1.88566   3.60477   6.86626   2.20091   0.00000   9.981E-01   0.000E+00   2.182E-03
 428  8.58619411   0.769  -1.88570   3.60477   6.86628   2.20097   0.00000   9.987E-01   0.000E+00   1.549E-03
 429  8.59653697   0.769  -1.88570   3.60477   6.86629   2.20098   0.00000   9.991E-01   0.000E+00   1.216E-03
 430  8.60663923   0.769  -1.88568   3.60477   6.86629   2.20095   0.00000   9.992E-01   0.000E+00   1.105E-03
 431  8.61651184   0.769  -1.88566   3.60477   6.86629   2.20093   0.00000   9.993E-01   0.000E+00   9.934E-04
 432  8.62616499   0.769  -1.88564   3.60477   6.86628   2.20090   0.00000   9.994E-01   0.000E+00   8.822E-04
 433  8.63560824   0.769  -1.88562   3.60477   6.86628   2.20088   0.00000   9.995E-01   0.000E+00   7.709E-04
 434  8.64485051   0.769  -1.88560   3.60477   6.86628   2.20086   0.00000   9.997E-01   0.000E+00   6.596E-04
 435  8.65390019   0.769  -1.88558   3.60477   6.86628   2.20083   0.00000   9.998E-01   0.000E+00   5.484E-04
 436  8.66276514   0.769  -1.88556   3.60477   6.86628   2.20081   0.00000   9.999E-01   0.000E+00   4.371E-04
 437  8.67145275   0.769  -1.88554   3.60478   6.86627   2.20078   0.00000   1.000E+00   0.000E+00   3.259E-04
 438  8.67996998   0.769  -1.88552   3.60478   6.86627   2.20076   0.00000   1.000E+00   0.000E+00   2.146E-04
 439  8.68832338   0.769  -1.88551   3.60478   6.86627   2.20074   0.00000   1.000E+00   0.000E+00   1.034E-04
 440  8.69651913   0.769  -1.88549   3.60478   6.86627   2.20071   0.00000   1.000E+00   0.000E+00  -7.876E-06
 441  8.70456308   0.769  -1.88547   3.60478   6.86627   2.20069   0.00000   1.000E+00   0.000E+00  -1.191E-04
 442  8.71246074   0.769  -1.88545   3.60478   6.86627   2.20066   0.00000   1.001E+00   0.000E+00  -2.304E-04
 443  8.72021734   0.769  -1.88543   3.60478   6.86626   2.20064   0.00000   1.001E+00   0.000E+00  -3.416E-04
 444  8.72783784   0.769  -1.88541   3.60478   6.86626   2.20062   0.00000   1.001E+00   0.000E+00  -4.529E-04
 445  8.73532693   0.769  -1.88539   3.60478   6.86626   2.20059   0.00000   1.001E+00   0.000E+00  -5.641E-04
 446  8.74268905   0.769  -1.88536   3.60478   6.86626   2.20055   0.00000   1.001E+00   0.000E+00  -6.312E-04
 447  8.74992846   0.769  -1.88532   3.60478   6.86625   2.20050   0.00000   1.001E+00   0.000E+00  -6.598E-04
 448  8.75704916   0.769  -1.88528   3.60478   6.86624   2.20045   0.00000   1.001E+00   0.000E+00  -6.883E-04
 449  8.76405499   0.769  -1.88525   3.60478   6.86623   2.20040   0.00000   1.001E+00   0.000E+00  -7.168E-04
 450  8.77094960   0.769  -1.88521   3.60478   6.86622   2.20035   0.00000   1.001E+00   0.000E+00  -7.454E-04
 451  8.77773646   0.769  -1.88517   3.60479   6.86621   2.20030   0.00000   1.001E+00   0.000E+00  -7.739E-04
 452  8.78441889   0.769  -1.88513   3.60479   6.86620   2.20026   0.00000   1.001E+00   0.000E+00  -8.024E-04
 453  8.79100006   0.769  -1.88510   3.60479   6.86619   2.20021   0.00000   1.001E+00   0.000E+00  -8.310E-04
 454  8.79748298   0.769  -1.88506   3.60479   6.86618   2.20016   0.00000   1.001E+00   0.000E+00  -8.595E-04
 455  8.80387056   0.769  -1.88502   3.60479   6.86618   2.20011   0.00000   1.001E+00   0.000E+00  -8.880E-04
 456  8.81016554   0.769  -1.88498   3.60479   6.86617   2.20006   0.00000   1.001E+00   0.000E+00  -9.166E-04
 457  8.81637058   0.769  -1.88495   3.60479   6.86616   2.20001   0.00000   1.001E+00   0.000E+00  -9.451E-04
 458  8.82248822   0.769  -1.88491   3.60479   6.86615   2.19996   0.00000   1.001E+00   0.000E+00  -9.736E-04
 459  8.82852087   0.769  -1.88487   3.60479   6.86614   2.19991   0.00000   1.001E+00   0.000E+00  -1.002E-03
 460  8.83447088   0.769  -1.88483   3.60479   6.86613   2.19986   0.00000   1.001E+00   0.000E+00  -1.031E-03
 461  8.84034046   0.769  -1.88480   3.60479   6.86612   2.19981   0.00000   1.001E+00   0.000E+00  -1.059E-03
 462  8.84613178   0.769  -1.88476   3.60480   6.86611   2.19976   0.00000   1.001E+00   0.000E+00  -1.088E-03
 463  8.85184688   0.769  -1.88472   3.60480   6.86611   2.19971   0.00000   1.001E+00   0.000E+00  -1.116E-03
 464  8.85748775   0.769  -1.88468   3.60480   6.86610   2.19966   0.00000   1.001E+00   0.000E+00  -1.145E-03
 465  8.86305629   0.769  -1.88464   3.60480   6.86609   2.19961   0.00000   1.001E+00   0.000E+00  -1.173E-03
 466  8.86855434   0.769  -1.88461   3.60480   6.86608   2.19956   0.00000   1.001E+00   0.000E+00  -1.202E-03
 467  8.87398365   0.769  -1.88457   3.60480   6.86607   2.19951   0.00000   1.001E+00   0.000E+00  -1.230E-03
 468  8.87934592   0.769  -1.88452   3.60480   6.86606   2.19944   0.00000   1.001E+00   0.000E+00  -1.248E-03
 469  8.88464279   0.769  -1.88447   3.60480   6.86604   2.19938   0.00000   1.001E+00   0.000E+00  -1.266E-03
 470  8.88987584   0.769  -1.88443   3.60480   6.86603   2.19931   0.00000   1.001E+00   0.000E+00  -1.283E-03
 471  8.89504658   0.769  -1.88438   3.60480   6.86601   2.19924   0.00000   1.001E+00   0.000E+00  -1.301E-03
 472  8.90015648   0.769  -1.88433   3.60480   6.86600   2.19918   0.00000   1.001E+00   0.000E+00  -1.319E-03
 473  8.90520696   0.769  -1.88428   3.60481   6.86598   2.19911   0.00000   1.001E+00   0.000E+00  -1.336E-03
 474  8.91019938   0.769  -1.88423   3.60481   6.86597   2.19905   0.00000   1.001E+00   0.000E+00  -1.354E-03
 475  8.91513506   0.769  -1.88419   3.60481   6.86595   2.19898   0.00000   1.001E+00   0.000E+00  -1.372E-03
 476  8.92001527   0.769  -1.88414   3.60481   6.86594   2.19892   0.00000   1.001E+00   0.000E+00  -1.389E-03
 477  8.92484126   0.769  -1.88409   3.60481   6.86593   2.19885   0.00000   1.001E+00   0.000E+00  -1.407E-03
 478  8.92961420   0.769  -1.88404   3.60481   6.86591   2.19878   0.00000   1.002E+00   0.000E+00  -1.425E-03
 479  8.93433526   0.769  -1.88399   3.60481   6.86590   2.19872   0.00000   1.002E+00   0.000E+00  -1.442E-03
 480  8.93900556   0.769  -1.88395   3.60481   6.86588   2.19865   0.00000   1.002E+00   0.000E+00  -1.460E-03
 481  8.94362616   0.769  -1.88390   3.60481   6.86587   2.19859   0.00000   1.002E+00   0.000E+00  -1.478E-03
 482  8.94819812   0.769  -1.88385   3.60481   6.86585   2.19852   0.00000   1.002E+00   0.000E+00  -1.495E-03
 483  8.95272245   0.769  -1.88380   3.60481   6.86584   2.19845   0.00000   1.002E+00   0.000E+00  -1.513E-03
 484  8.95720013   0.769  -1.88376   3.60482   6.86582   2.19839   0.00000   1.002E+00   0.000E+00  -1.531E-03
 485  8.96163212   0.769  -1.88371   3.60482   6.86581   2.19832   0.00000   1.002E+00   0.000E+00  -1.548E-03
 486  8.96601933   0.769  -1.88366   3.60482   6.86580   2.19826   0.00000   1.002E+00   0.000E+00  -1.566E-03
 487  8.97036267   0.769  -1.88361   3.60482   6.86578   2.19819   0.00000   1.002E+00   0.000E+00  -1.583E-03
 488  8.97466300   0.769  -1.88356   3.60482   6.86577   2.19812   0.00000   1.002E+00   0.000E+00  -1.601E-03
 489  8.97892117   0.769  -1.88351   3.60482   6.86575   2.19805   0.00000   1.002E+00   0.000E+00  -1.617E-03
 490  8.98313799   0.768  -1.88345   3.60482   6.86573   2.19797   0.00000   1.002E+00   0.000E+00  -1.630E-03
 491  8.98731426   0.768  -1.88340   3.60482   6.86572   2.19789   0.00000   1.002E+00   0.000E+00  -1.644E-03
 492  8.99145076   0.768  -1.88334   3.60482   6.86570   2.19781   0.00000   1.002E+00   0.000E+00  -1.657E-03
 493  8.99554822   0.768  -1.88328   3.60482   6.86568   2.19773   0.00000   1.002E+00   0.000E+00  -1.671E-03
 494  8.99960739   0.768  -1.88323   3.60483   6.86566   2.19766   0.00000   1.002E+00   0.000E+00  -1.684E-03
 495  9.00362897   0.768  -1.88317   3.60483   6.86565   2.19758   0.00000   1.002E+00   0.000E+00  -1.698E-03
 496  9.00761365   0.768  -1.88311   3.60483   6.86563   2.19750   0.00000   1.002E+00   0.000E+00  -1.711E-03
 497  9.01156211   0.768  -1.88305   3.60483   6.86561   2.19742   0.00000   1.002E+00   0.000E+00  -1.725E-03
 498  9.01547499   0.768  -1.88300   3.60483   6.86559   2.19734   0.00000   1.002E+00   0.000E+00  -1.738E-03
 499  9.01935293   0.768  -1.88294   3.60483   6.86557   2.19726   0.00000   1.002E+00   0.000E+00  -1.751E-03
 500  9.02319655   0.768  -1.88288   3.60483   6.86556   2.19718   0.00000   1.002E+00   0.000E+00  -1.765E-03
 501  9.02700645   0.768  -1.88283   3.60483   6.86554   2.19710   0.00000   1.002E+00   0.000E+00  -1.778E-03
 502  9.03078322   0.768  -1.88277   3.60483   6.86552   2.19702   0.00000   1.002E+00   0.000E+00  -1.792E-03
 503  9.03452742   0.768  -1.88271   3.60483   6.86550   2.19694   0.00000   1.002E+00   0.000E+00  -1.805E-03
 504  9.03823962   0.768  -1.88265   3.60483   6.86549   2.19687   0.00000   1.002E+00   0.000E+00  -1.819E-03
 505  9.04192037   0.768  -1.88260   3.60484   6.86547   2.19679   0.00000   1.002E+00   0.000E+00  -1.832E-03
 506  9.04557017   0.768  -1.88254   3.60484   6.86545   2.19671   0.00000   1.002E+00   0.000E+00  -1.846E-03
 507  9.04918956   0.768  -1.88248   3.60484   6.86543   2.19663   0.00000   1.002E+00   0.000E+00  -1.859E-03
 508  9.05277904   0.768  -1.88243   3.60484   6.86542   2.19655   0.00000   1.002E+00   0.000E+00  -1.873E-03
 509  9.05633909   0.768  -1.88237   3.60484   6.86540   2.19647   0.00000   1.002E+00   0.000E+00  -1.886E-03
 510  9.05987019   0.768  -1.88231   3.60484   6.86538   2.19639   0.00000   1.002E+00   0.000E+00  -1.900E-03
 511  9.06337282   0.768  -1.88225   3.60484   6.86536   2.19630   0.00000   1.002E+00   0.000E+00  -1.910E-03
 512  9.06684742   0.768  -1.88218   3.60484   6.86534   2.19621   0.00000   1.002E+00   0.000E+00  -1.920E-03
 513  9.07029445   0.768  -1.88212   3.60484   6.86532   2.19613   0.00000   1.002E+00   0.000E+00  -1.930E-03
 514  9.07371433   0.768  -1.88206   3.60485   6.86530   2.19604   0.00000   1.002E+00   0.000E+00  -1.941E-03
 515  9.07710749   0.768  -1.88199   3.60485   6.86528   2.19595   0.00000   1.002E+00   0.000E+00  -1.951E-03
 516  9.08047435   0.768  -1.88193   3.60485   6.86525   2.19586   0.00000   1.002E+00   0.000E+00  -1.961E-03
 517  9.08381530   0.768  -1.88187   3.60485   6.86523   2.19577   0.00000   1.002E+00   0.000E+00  -1.971E-03
 518  9.08713075   0.768  -1.88180   3.60485   6.86521   2.19568   0.00000   1.002E+00   0.000E+00  -1.982E-03
 519  9.09042108   0.768  -1.88174   3.60485   6.86519   2.19559   0.00000   1.002E+00   0.000E+00  -1.992E-03
 520  9.09368667   0.768  -1.88167   3.60485   6.86517   2.19550   0.00000   1.002E+00   0.000E+00  -2.002E-03
 521  9.09692789   0.768  -1.88161   3.60486   6.86515   2.19542   0.00000   1.002E+00   0.000E+00  -2.012E-03
 522  9.10014510   0.768  -1.88155   3.60486   6.86513   2.19533   0.00000   1.002E+00   0.000E+00  -2.022E-03
 523  9.10333865   0.768  -1.88148   3.60486   6.86511   2.19524   0.00000   1.002E+00   0.000E+00  -2.033E-03
 524  9.10650888   0.768  -1.88142   3.60486   6.86509   2.19515   0.00000   1.002E+00   0.000E+00  -2.043E-03
 525  9.10965615   0.768  -1.88136   3.60486   6.86507   2.19506   0.00000   1.002E+00   0.000E+00  -2.053E-03
 526  9.11278077   0.768  -1.88129   3.60486   6.86505   2.19497   0.00000   1.002E+00   0.000E+00  -2.063E-03
 527  9.11588307   0.768  -1.88123   3.60486   6.86502   2.19488   0.00000   1.002E+00   0.000E+00  -2.074E-03
 528  9.11896336   0.768  -1.88117   3.60487   6.86500   2.19479   0.00000   1.002E+00   0.000E+00  -2.084E-03
 529  9.12202196   0.768  -1.88110   3.60487   6.86498   2.19471   0.00000   1.002E+00   0.000E+00  -2.094E-03
 530  9.12505917   0.768  -1.88104   3.60487   6.86496   2.19462   0.00000   1.002E+00   0.000E+00  -2.104E-03
 531  9.12807529   0.768  -1.88097   3.60487   6.86494   2.19453   0.00000   1.002E+00   0.000E+00  -2.115E-03
 532  9.13107061   0.768  -1.88091   3.60487   6.86492   2.19444   0.00000   1.002E+00   0.000E+00  -2.123E-03
 533  9.13404541   0.768  -1.88084   3.60487   6.86490   2.19434   0.00000   1.002E+00   0.000E+00  -2.131E-03
 534  9.13699997   0.768  -1.88077   3.60487   6.86487   2.19424   0.00000   1.002E+00   0.000E+00  -2.138E-03
 535  9.13993457   0.768  -1.88070   3.60487   6.86485   2.19415   0.00000   1.002E+00   0.000E+00  -2.146E-03
 536  9.14284947   0.768  -1.88064   3.60487   6.86483   2.19405   0.00000   1.002E+00   0.000E+00  -2.153E-03
 537  9.14574493   0.768  -1.88057   3.60488   6.86481   2.19395   0.00000   1.002E+00   0.000E+00  -2.161E-03
 538  9.14862122   0.768  -1.88050   3.60488   6.86478   2.19386   0.00000   1.002E+00   0.000E+00  -2.168E-03
 539  9.15147859   0.768  -1.88043   3.60488   6.86476   2.19376   0.00000   1.002E+00   0.000E+00  -2.175E-03
 540  9.15431728   0.768  -1.88036   3.60488   6.86474   2.19367   0.00000   1.002E+00   0.000E+00  -2.183E-03
 541  9.15713753   0.768  -1.88029   3.60488   6.86471   2.19357   0.00000   1.002E+00   0.000E+00  -2.190E-03
 542  9.15993959   0.768  -1.88023   3.60488   6.86469   2.19347   0.00000   1.002E+00   0.000E+00  -2.198E-03
 543  9.16272369   0.768  -1.88016   3.60488   6.86467   2.19338   0.00000   1.002E+00   0.000E+00  -2.205E-03
 544  9.16549005   0.768  -1.88009   3.60488   6.86465   2.19328   0.00000   1.002E+00   0.000E+00  -2.213E-03
 545  9.16823890   0.768  -1.88002   3.60488   6.86462   2.19318   0.00000   1.002E+00   0.000E+00  -2.220E-03
 546  9.17097046   0.768  -1.87995   3.60488   6.86460   2.19309   0.00000   1.002E+00   0.000E+00  -2.228E-03
 547  9.17368495   0.768  -1.87988   3.60488   6.86458   2.19299   0.00000   1.002E+00   0.000E+00  -2.235E-03
 548  9.17638258   0.768  -1.87982   3.60489   6.86456   2.19290   0.00000   1.002E+00   0.000E+00  -2.242E-03
 549  9.17906355   0.768  -1.87975   3.60489   6.86453   2.19280   0.00000   1.002E+00   0.000E+00  -2.250E-03
 550  9.18172808   0.768  -1.87968   3.60489   6.86451   2.19270   0.00000   1.002E+00   0.000E+00  -2.257E-03
 551  9.18437636   0.768  -1.87961   3.60489   6.86449   2.19261   0.00000   1.002E+00   0.000E+00  -2.265E-03
 552  9.18700858   0.768  -1.87954   3.60489   6.86446   2.19251   0.00000   1.002E+00   0.000E+00  -2.272E-03
 553  9.18962495   0.768  -1.87947   3.60489   6.86444   2.19242   0.00000   1.002E+00   0.000E+00  -2.280E-03
 554  9.19222566   0.768  -1.87940   3.60489   6.86442   2.19231   0.00000   1.002E+00   0.000E+00  -2.284E-03
 555  9.19481088   0.768  -1.87933   3.60489   6.86439   2.19221   0.00000   1.002E+00   0.000E+00  -2.288E-03
 556  9.19738080   0.768  -1.87926   3.60489   6.86437   2.19211   0.00000   1.002E+00   0.000E+00  -2.292E-03
 557  9.19993560   0.768  -1.87919   3.60489   6.86434   2.19201   0.00000   1.002E+00   0.000E+00  -2.296E-03
 558  9.20247547   0.768  -1.87912   3.60489   6.86432   2.19191   0.00000   1.002E+00   0.000E+00  -2.301E-03
 559  9.20500056   0.768  -1.87904   3.60490   6.86429   2.19181   0.00000   1.002E+00   0.000E+00  -2.305E-03
 560  9.20751106   0.768  -1.87897   3.60490   6.86427   2.19171   0.00000   1.002E+00   0.000E+00  -2.309E-03
 561  9.21000713   0.768  -1.87890   3.60490   6.86424   2.19161   0.00000   1.002E+00   0.000E+00  -2.313E-03
 562  9.21248894   0.768  -1.87883   3.60490   6.86422   2.19151   0.00000   1.002E+00   0.000E+00  -2.317E-03
 563  9.21495664   0.768  -1.87876   3.60490   6.86420   2.19141   0.00000   1.002E+00   0.000E+00  -2.322E-03
 564  9.21741040   0.768  -1.87869   3.60490   6.86417   2.19131   0.00000   1.002E+00   0.000E+00  -2.326E-03
 565  9.21985038   0.768  -1.87862   3.60490   6.86415   2.19121   0.00000   1.002E+00   0.000E+00  -2.330E-03
 566  9.22227672   0.767  -1.87854   3.60490   6.86412   2.19110   0.00000   1.002E+00   0.000E+00  -2.334E-03
 567  9.22468959   0.767  -1.87847   3.60490   6.86410   2.19100   0.00000   1.002E+00   0.000E+00  -2.338E-03
 568  9.22708912   0.767  -1.87840   3.60490   6.86407   2.19090   0.00000   1.002E+00   0.000E+00  -2.343E-03
 569  9.22947547   0.767  -1.87833   3.60490   6.86405   2.19080   0.00000   1.002E+00   0.000E+00  -2.347E-03
 570  9.23184877   0.767  -1.87826   3.60491   6.86402   2.19070   0.00000   1.002E+00   0.000E+00  -2.351E-03
 571  9.23420918   0.767  -1.87819   3.60491   6.86400   2.19060   0.00000   1.002E+00   0.000E+00  -2.355E-03
 572  9.23655683   0.767  -1.87811   3.60491   6.86397   2.19050   0.00000   1.002E+00   0.000E+00  -2.359E-03
 573  9.23889186   0.767  -1.87804   3.60491   6.86395   2.19040   0.00000   1.002E+00   0.000E+00  -2.363E-03
 574  9.24121439   0.767  -1.87797   3.60491   6.86392   2.19030   0.00000   1.002E+00   0.000E+00  -2.368E-03
 575  9.24352458   0.767  -1.87790   3.60491   6.86390   2.19019   0.00000   1.002E+00   0.000E+00  -2.372E-03
 576  9.24582254   0.767  -1.87782   3.60491   6.86387   2.19009   0.00000   1.002E+00   0.000E+00  -2.375E-03
 577  9.24810840   0.767  -1.87775   3.60491   6.86384   2.18998   0.00000   1.002E+00   0.000E+00  -2.379E-03
 578  9.25038230   0.767  -1.87768   3.60491   6.86381   2.18987   0.00000   1.002E+00   0.000E+00  -2.383E-03
 579  9.25264435   0.767  -1.87760   3.60491   6.86378   2.18976   0.00000   1.002E+00   0.000E+00  -2.386E-03
 580  9.25489468   0.767  -1.87753   3.60492   6.86376   2.18965   0.00000   1.002E+00   0.000E+00  -2.390E-03
 581  9.25713341   0.767  -1.87746   3.60492   6.86373   2.18954   0.00000   1.002E+00   0.000E+00  -2.394E-03
 582  9.25936066   0.767  -1.87738   3.60492   6.86370   2.18944   0.00000   1.002E+00   0.000E+00  -2.398E-03
 583  9.26157655   0.767  -1.87731   3.60492   6.86367   2.18933   0.00000   1.002E+00   0.000E+00  -2.401E-03
 584  9.26378119   0.767  -1.87723   3.60492   6.86364   2.18922   0.00000   1.002E+00   0.000E+00  -2.405E-03
 585  9.26597469   0.767  -1.87716   3.60492   6.86361   2.18911   0.00000   1.002E+00   0.000E+00  -2.409E-03
 586  9.26815717   0.767  -1.87709   3.60492   6.86359   2.18900   0.00000   1.002E+00   0.000E+00  -2.412E-03
 587  9.27032873   0.767  -1.87701   3.60492   6.86356   2.18889   0.00000   1.002E+00   0.000E+00  -2.416E-03
 588  9.27248950   0.767  -1.87694   3.60492   6.86353   2.18879   0.00000   1.002E+00   0.000E+00  -2.420E-03
 589  9.27463956   0.767  -1.87686   3.60492   6.86350   2.18868   0.00000   1.002E+00   0.000E+00  -2.424E-03
 590  9.27677903   0.767  -1.87679   3.60492   6.86347   2.18857   0.00000   1.002E+00   0.000E+00  -2.427E-03
 591  9.27890802   0.767  -1.87672   3.60493   6.86344   2.18846   0.00000   1.002E+00   0.000E+00  -2.431E-03
 592  9.28102662   0.767  -1.87664   3.60493   6.86342   2.18835   0.00000   1.002E+00   0.000E+00  -2.435E-03
 593  9.28313493   0.767  -1.87657   3.60493   6.86339   2.18824   0.00000   1.002E+00   0.000E+00  -2.439E-03
 594  9.28523306   0.767  -1.87649   3.60493   6.86336   2.18814   0.00000   1.002E+00   0.000E+00  -2.442E-03
 595  9.28732110   0.767  -1.87642   3.60493   6.86333   2.18803   0.00000   1.002E+00   0.000E+00  -2.446E-03
 596  9.28939915   0.767  -1.87635   3.60493   6.86330   2.18792   0.00000   1.002E+00   0.000E+00  -2.450E-03
 597  9.29146731   0.767  -1.87627   3.60493   6.86328   2.18781   0.00000   1.002E+00   0.000E+00  -2.450E-03
 598  9.29352566   0.767  -1.87620   3.60493   6.86325   2.18771   0.00000   1.002E+00   0.000E+00  -2.449E-03
 599  9.29557430   0.767  -1.87612   3.60493   6.86322   2.18761   0.00000   1.002E+00   0.000E+00  -2.449E-03
 600  9.29761332   0.767  -1.87605   3.60493   6.86320   2.18750   0.00000   1.002E+00   0.000E+00  -2.448E-03
 601  9.29964282   0.767  -1.87597   3.60493   6.86317   2.18740   0.00000   1.002E+00   0.000E+00  -2.448E-03
 602  9.30166287   0.767  -1.87590   3.60494   6.86315   2.18729   0.00000   1.002E+00   0.000E+00  -2.447E-03
 603  9.30367358   0.767  -1.87583   3.60494   6.86312   2.18719   0.00000   1.002E+00   0.000E+00  -2.447E-03
 604  9.30567501   0.767  -1.87575   3.60494   6.86309   2.18708   0.00000   1.002E+00   0.000E+00  -2.446E-03
 605  9.30766727   0.767  -1.87568   3.60494   6.86307   2.18698   0.00000   1.002E+00   0.000E+00  -2.446E-03
 606  9.30965043   0.767  -1.87560   3.60494   6.86304   2.18687   0.00000   1.002E+00   0.000E+00  -2.445E-03
 607  9.31162457   0.767  -1.87553   3.60494   6.86302   2.18677   0.00000   1.002E+00   0.000E+00  -2.445E-03
 608  9.31358978   0.767  -1.87545   3.60494   6.86299   2.18666   0.00000   1.002E+00   0.000E+00  -2.444E-03
 609  9.31554614   0.767  -1.87538   3.60494   6.86296   2.18656   0.00000   1.002E+00   0.000E+00  -2.444E-03
 610  9.31749372   0.767  -1.87531   3.60494   6.86294   2.18646   0.00000   1.002E+00   0.000E+00  -2.444E-03
 611  9.31943261   0.767  -1.87523   3.60494   6.86291   2.18635   0.00000   1.002E+00   0.000E+00  -2.443E-03
 612  9.32136288   0.767  -1.87516   3.60494   6.86289   2.18625   0.00000   1.002E+00   0.000E+00  -2.443E-03
 613  9.32328461   0.767  -1.87508   3.60495   6.86286   2.18614   0.00000   1.002E+00   0.000E+00  -2.442E-03
 614  9.32519788   0.767  -1.87501   3.60495   6.86283   2.18604   0.00000   1.002E+00   0.000E+00  -2.442E-03
 615  9.32710275   0.767  -1.87493   3.60495   6.86281   2.18593   0.00000   1.002E+00   0.000E+00  -2.441E-03
 616  9.32899930   0.767  -1.87486   3.60495   6.86278   2.18583   0.00000   1.002E+00   0.000E+00  -2.441E-03
 617  9.33088761   0.767  -1.87479   3.60495   6.86276   2.18572   0.00000   1.002E+00   0.000E+00  -2.440E-03
 618  9.33276774   0.767  -1.87471   3.60495   6.86273   2.18562   0.00000   1.002E+00   0.000E+00  -2.439E-03
 619  9.33463977   0.767  -1.87464   3.60495   6.86270   2.18552   0.00000   1.002E+00   0.000E+00  -2.438E-03
 620  9.33650376   0.767  -1.87456   3.60495   6.86268   2.18541   0.00000   1.002E+00   0.000E+00  -2.437E-03
 621  9.33835979   0.767  -1.87449   3.60495   6.86265   2.18531   0.00000   1.002E+00   0.000E+00  -2.435E-03
 622  9.34020792   0.767  -1.87442   3.60495   6.86263   2.18520   0.00000   1.002E+00   0.000E+00  -2.434E-03
 623  9.34204822   0.767  -1.87434   3.60496   6.86260   2.18510   0.00000   1.002E+00   0.000E+00  -2.432E-03
 624  9.34388075   0.767  -1.87427   3.60496   6.86257   2.18499   0.00000   1.002E+00   0.000E+00  -2.431E-03
 625  9.34570558   0.767  -1.87419   3.60496   6.86255   2.18489   0.00000   1.002E+00   0.000E+00  -2.430E-03
 626  9.34752278   0.767  -1.87412   3.60496   6.86252   2.18479   0.00000   1.002E+00   0.000E+00  -2.428E-03
 627  9.34933241   0.767  -1.87405   3.60496   6.86250   2.18468   0.00000   1.002E+00   0.000E+00  -2.427E-03
 628  9.35113452   0.767  -1.87397   3.60496   6.86247   2.18458   0.00000   1.002E+00   0.000E+00  -2.426E-03
 629  9.35292919   0.767  -1.87390   3.60496   6.86244   2.18447   0.00000   1.002E+00   0.000E+00  -2.424E-03
 630  9.35471647   0.767  -1.87382   3.60496   6.86242   2.18437   0.00000   1.002E+00   0.000E+00  -2.423E-03
 631  9.35649643   0.767  -1.87375   3.60496   6.86239   2.18427   0.00000   1.002E+00   0.000E+00  -2.421E-03
 632  9.35826912   0.767  -1.87368   3.60496   6.86237   2.18416   0.00000   1.002E+00   0.000E+00  -2.420E-03
 633  9.36003461   0.767  -1.87360   3.60496   6.86234   2.18406   0.00000   1.002E+00   0.000E+00  -2.419E-03
 634  9.36179295   0.767  -1.87353   3.60497   6.86231   2.18395   0.00000   1.002E+00   0.000E+00  -2.417E-03
 635  9.36354420   0.767  -1.87345   3.60497   6.86229   2.18385   0.00000   1.002E+00   0.000E+00  -2.416E-03
 636  9.36528841   0.767  -1.87338   3.60497   6.86226   2.18375   0.00000   1.002E+00   0.000E+00  -2.414E-03
 637  9.36702565   0.767  -1.87331   3.60497   6.86224   2.18364   0.00000   1.002E+00   0.000E+00  -2.413E-03
 638  9.36875596   0.767  -1.87323   3.60497   6.86221   2.18354   0.00000   1.002E+00   0.000E+00  -2.412E-03
 639  9.37047941   0.767  -1.87316   3.60497   6.86218   2.18343   0.00000   1.002E+00   0.000E+00  -2.410E-03
 640  9.37219605   0.767  -1.87309   3.60497   6.86216   2.18333   0.00000   1.002E+00   0.000E+00  -2.408E-03
 641  9.37390593   0.767  -1.87301   3.60497   6.86213   2.18323   0.00000   1.002E+00   0.000E+00  -2.407E-03
 642  9.37560910   0.767  -1.87294   3.60497   6.86211   2.18312   0.00000   1.002E+00   0.000E+00  -2.405E-03
 643  9.37730562   0.767  -1.87287   3.60497   6.86208   2.18302   0.00000   1.002E+00   0.000E+00  -2.403E-03
 644  9.37899554   0.767  -1.87280   3.60497   6.86205   2.18292   0.00000   1.002E+00   0.000E+00  -2.401E-03
 645  9.38067891   0.766  -1.87272   3.60498   6.86203   2.18282   0.00000   1.002E+00   0.000E+00  -2.399E-03
 646  9.38235578   0.766  -1.87265   3.60498   6.86200   2.18271   0.00000   1.002E+00   0.000E+00  -2.397E-03
 647  9.38402619   0.766  -1.87258   3.60498   6.86198   2.18261   0.00000   1.002E+00   0.000E+00  -2.395E-03
 648  9.38569021   0.766  -1.87251   3.60498   6.86195   2.18251   0.00000   1.002E+00   0.000E+00  -2.394E-03
 649  9.38734788   0.766  -1.87243   3.60498   6.86192   2.18241   0.00000   1.002E+00   0.000E+00  -2.392E-03
 650  9.38899924   0.766  -1.87236   3.60498   6.86190   2.18230   0.00000   1.002E+00   0.000E+00  -2.390E-03
 651  9.39064435   0.766  -1.87229   3.60498   6.86187   2.18220   0.00000   1.002E+00   0.000E+00  -2.388E-03
 652  9.39228325   0.766  -1.87222   3.60498   6.86184   2.18210   0.00000   1.002E+00   0.000E+00  -2.386E-03
 653  9.39391599   0.766  -1.87214   3.60498   6.86182   2.18200   0.00000   1.002E+00   0.000E+00  -2.384E-03
 654  9.39554261   0.766  -1.87207   3.60498   6.86179   2.18189   0.00000   1.002E+00   0.000E+00  -2.382E-03
 655  9.39716317   0.766  -1.87200   3.60498   6.86177   2.18179   0.00000   1.002E+00   0.000E+00  -2.380E-03
 656  9.39877769   0.766  -1.87193   3.60499   6.86174   2.18169   0.00000   1.002E+00   0.000E+00  -2.379E-03
 657  9.40038624   0.766  -1.87185   3.60499   6.86171   2.18158   0.00000   1.002E+00   0.000E+00  -2.377E-03
 658  9.40198886   0.766  -1.87178   3.60499   6.86169   2.18148   0.00000   1.002E+00   0.000E+00  -2.375E-03
 659  9.40358558   0.766  -1.87171   3.60499   6.86166   2.18138   0.00000   1.002E+00   0.000E+00  -2.373E-03
 660  9.40517645   0.766  -1.87164   3.60499   6.86164   2.18128   0.00000   1.002E+00   0.000E+00  -2.371E-03
 661  9.40676152   0.766  -1.87156   3.60499   6.86161   2.18117   0.00000   1.002E+00   0.000E+00  -2.369E-03
 662  9.40834082   0.766  -1.87149   3.60499   6.86159   2.18107   0.00000   1.002E+00   0.000E+00  -2.367E-03
 663  9.40991440   0.766  -1.87142   3.60499   6.86156   2.18097   0.00000   1.002E+00   0.000E+00  -2.365E-03
 664  9.41148229   0.766  -1.87135   3.60499   6.86154   2.18087   0.00000   1.002E+00   0.000E+00  -2.362E-03
 665  9.41304455   0.766  -1.87128   3.60499   6.86151   2.18077   0.00000   1.002E+00   0.000E+00  -2.360E-03
 666  9.41460121   0.766  -1.87121   3.60499   6.86149   2.18067   0.00000   1.002E+00   0.000E+00  -2.358E-03
 667  9.41615231   0.766  -1.87114   3.60499   6.86146   2.18057   0.00000   1.002E+00   0.000E+00  -2.355E-03
 668  9.41769789   0.766  -1.87106   3.60499   6.86144   2.18047   0.00000   1.002E+00   0.000E+00  -2.353E-03
 669  9.41923799   0.766  -1.87099   3.60499   6.86141   2.18037   0.00000   1.002E+00   0.000E+00  -2.351E-03
 670  9.42077264   0.766  -1.87092   3.60499   6.86139   2.18027   0.00000   1.002E+00   0.000E+00  -2.348E-03
 671  9.42230189   0.766  -1.87085   3.60499   6.86136   2.18017   0.00000   1.002E+00   0.000E+00  -2.346E-03
 672  9.42382578   0.766  -1.87078   3.60500   6.86134   2.18006   0.00000   1.002E+00   0.000E+00  -2.344E-03
 673  9.42534434   0.766  -1.87071   3.60500   6.86131   2.17996   0.00000   1.002E+00   0.000E+00  -2.341E-03
 674  9.42685760   0.766  -1.87063   3.60500   6.86128   2.17986   0.00000   1.002E+00   0.000E+00  -2.339E-03
 675  9.42836562   0.766  -1.87056   3.60500   6.86126   2.17976   0.00000   1.002E+00   0.000E+00  -2.337E-03
 676  9.42986841   0.766  -1.87049   3.60500   6.86123   2.17966   0.00000   1.002E+00   0.000E+00  -2.334E-03
 677  9.43136602   0.766  -1.87042   3.60500   6.86121   2.17956   0.00000   1.002E+00   0.000E+00  -2.332E-03
 678  9.43285849   0.766  -1.87035   3.60500   6.86118   2.17946   0.00000   1.002E+00   0.000E+00  -2.330E-03
 679  9.43434584   0.766  -1.87028   3.60500   6.86116   2.17936   0.00000   1.002E+00   0.000E+00  -2.327E-03
 680  9.43582812   0.766  -1.87020   3.60500   6.86113   2.17926   0.00000   1.002E+00   0.000E+00  -2.325E-03
 681  9.43730535   0.766  -1.87013   3.60500   6.86111   2.17916   0.00000   1.002E+00   0.000E+00  -2.323E-03
 682  9.43877758   0.766  -1.87006   3.60500   6.86108   2.17906   0.00000   1.002E+00   0.000E+00  -2.320E-03
 683  9.44024483   0.766  -1.86999   3.60500   6.86106   2.17896   0.00000   1.002E+00   0.000E+00  -2.318E-03
 684  9.44170714   0.766  -1.86992   3.60500   6.86103   2.17886   0.00000   1.002E+00   0.000E+00  -2.315E-03
 685  9.44316455   0.766  -1.86985   3.60500   6.86101   2.17876   0.00000   1.002E+00   0.000E+00  -2.312E-03
 686  9.44461708   0.766  -1.86978   3.60500   6.86098   2.17866   0.00000   1.002E+00   0.000E+00  -2.309E-03
 687  9.44606477   0.766  -1.86971   3.60500   6.86096   2.17856   0.00000   1.002E+00   0.000E+00  -2.307E-03
 688  9.44750765   0.766  -1.86964   3.60501   6.86093   2.17846   0.00000   1.002E+00   0.000E+00  -2.304E-03
 689  9.44894575   0.766  -1.86957   3.60501   6.86091   2.17836   0.00000   1.002E+00   0.000E+00  -2.301E-03
 690  9.45037911   0.766  -1.86950   3.60501   6.86088   2.17826   0.00000   1.002E+00   0.000E+00  -2.298E-03
 691  9.45180775   0.766  -1.86943   3.60501   6.86085   2.17816   0.00000   1.002E+00   0.000E+00  -2.295E-03
 692  9.45323170   0.766  -1.86936   3.60501   6.86083   2.17806   0.00000   1.002E+00   0.000E+00  -2.293E-03
 693  9.45465101   0.766  -1.86929   3.60501   6.86080   2.17796   0.00000   1.002E+00   0.000E+00  -2.290E-03
 694  9.45606568   0.766  -1.86922   3.60501   6.86078   2.17786   0.00000   1.002E+00   0.000E+00  -2.287E-03
 695  9.45747577   0.766  -1.86915   3.60501   6.86075   2.17776   0.00000   1.002E+00   0.000E+00  -2.284E-03
 696  9.45888129   0.766  -1.86908   3.60501   6.86073   2.17766   0.00000   1.002E+00   0.000E+00  -2.281E-03
 697  9.46028228   0.766  -1.86901   3.60501   6.86070   2.17756   0.00000   1.002E+00   0.000E+00  -2.279E-03
 698  9.46167876   0.766  -1.86894   3.60501   6.86068   2.17746   0.00000   1.002E+00   0.000E+00  -2.276E-03
 699  9.46307077   0.766  -1.86887   3.60502   6.86065   2.17736   0.00000   1.002E+00   0.000E+00  -2.273E-03
 700  9.46445833   0.766  -1.86880   3.60502   6.86062   2.17726   0.00000   1.002E+00   0.000E+00  -2.270E-03
 701  9.46584147   0.766  -1.86873   3.60502   6.86060   2.17716   0.00000   1.002E+00   0.000E+00  -2.267E-03
 702  9.46722022   0.766  -1.86866   3.60502   6.86057   2.17706   0.00000   1.002E+00   0.000E+00  -2.265E-03
 703  9.46859461   0.766  -1.86859   3.60502   6.86055   2.17696   0.00000   1.002E+00   0.000E+00  -2.262E-03
 704  9.46996466   0.766  -1.86852   3.60502   6.86052   2.17686   0.00000   1.002E+00   0.000E+00  -2.259E-03
 705  9.47133040   0.766  -1.86845   3.60502   6.86050   2.17676   0.00000   1.002E+00   0.000E+00  -2.255E-03
 706  9.47269186   0.766  -1.86838   3.60502   6.86047   2.17667   0.00000   1.002E+00   0.000E+00  -2.251E-03
 707  9.47404907   0.766  -1.86831   3.60502   6.86045   2.17657   0.00000   1.002E+00   0.000E+00  -2.248E-03
 708  9.47540205   0.766  -1.86825   3.60502   6.86043   2.17647   0.00000   1.002E+00   0.000E+00  -2.244E-03
 709  9.47675082   0.766  -1.86818   3.60502   6.86040   2.17638   0.00000   1.002E+00   0.000E+00  -2.240E-03
 710  9.47809542   0.766  -1.86811   3.60503   6.86038   2.17628   0.00000   1.002E+00   0.000E+00  -2.237E-03
 711  9.47943587   0.766  -1.86804   3.60503   6.86035   2.17619   0.00000   1.002E+00   0.000E+00  -2.233E-03
 712  9.48077220   0.766  -1.86798   3.60503   6.86033   2.17609   0.00000   1.002E+00   0.000E+00  -2.229E-03
 713  9.48210443   0.766  -1.86791   3.60503   6.86030   2.17599   0.00000   1.002E+00   0.000E+00  -2.225E-03
 714  9.48343258   0.766  -1.86784   3.60503   6.86028   2.17590   0.00000   1.002E+00   0.000E+00  -2.222E-03
 715  9.48475668   0.766  -1.86777   3.60503   6.86026   2.17580   0.00000   1.002E+00   0.000E+00  -2.218E-03
 716  9.48607676   0.766  -1.86770   3.60503   6.86023   2.17570   0.00000   1.002E+00   0.000E+00  -2.214E-03
 717  9.48739284   0.766  -1.86764   3.60503   6.86021   2.17561   0.00000   1.002E+00   0.000E+00  -2.210E-03
 718  9.48870494   0.766  -1.86757   3.60503   6.86018   2.17551   0.00000   1.002E+00   0.000E+00  -2.207E-03
 719  9.49001309   0.766  -1.86750   3.60503   6.86016   2.17542   0.00000   1.002E+00   0.000E+00  -2.203E-03
 720  9.49131731   0.766  -1.86743   3.60504   6.86014   2.17532   0.00000   1.002E+00   0.000E+00  -2.199E-03
 721  9.49261763   0.766  -1.86736   3.60504   6.86011   2.17522   0.00000   1.002E+00   0.000E+00  -2.196E-03
 722  9.49391406   0.766  -1.86730   3.60504   6.86009   2.17513   0.00000   1.002E+00   0.000E+00  -2.192E-03
 723  9.49520664   0.766  -1.86723   3.60504   6.86006   2.17503   0.00000   1.002E+00   0.000E+00  -2.188E-03
 724  9.49649538   0.766  -1.86716   3.60504   6.86004   2.17494   0.00000   1.002E+00   0.000E+00  -2.184E-03
 725  9.49778030   0.766  -1.86709   3.60504   6.86001   2.17484   0.00000   1.002E+00   0.000E+00  -2.181E-03
 726  9.49906144   0.766  -1.86703   3.60504   6.85999   2.17475   0.00000   1.002E+00   0.000E+00  -2.177E-03
 727  9.50033881   0.766  -1.86696   3.60504   6.85997   2.17465   0.00000   1.002E+00   0.000E+00  -2.173E-03
 728  9.50161243   0.766  -1.86690   3.60504   6.85994   2.17456   0.00000   1.002E+00   0.000E+00  -2.170E-03
 729  9.50288233   0.766  -1.86683   3.60504   6.85992   2.17447   0.00000   1.002E+00   0.000E+00  -2.166E-03
 730  9.50414852   0.766  -1.86676   3.60504   6.85990   2.17438   0.00000   1.002E+00   0.000E+00  -2.162E-03
 731  9.50541104   0.766  -1.86670   3.60505   6.85988   2.17428   0.00000   1.002E+00   0.000E+00  -2.158E-03
 732  9.50666990   0.765  -1.86663   3.60505   6.85985   2.17419   0.00000   1.002E+00   0.000E+00  -2.155E-03
 733  9.50792511   0.765  -1.86657   3.60505   6.85983   2.17410   0.00000   1.002E+00   0.000E+00  -2.151E-03
 734  9.50917671   0.765  -1.86650   3.60505   6.85981   2.17401   0.00000   1.002E+00   0.000E+00  -2.147E-03
 735  9.51042472   0.765  -1.86643   3.60505   6.85978   2.17391   0.00000   1.002E+00   0.000E+00  -2.144E-03
 736  9.51166914   0.765  -1.86637   3.60505   6.85976   2.17382   0.00000   1.002E+00   0.000E+00  -2.140E-03
 737  9.51291001   0.765  -1.86630   3.60505   6.85974   2.17373   0.00000   1.002E+00   0.000E+00  -2.136E-03
 738  9.51414735   0.765  -1.86624   3.60505   6.85971   2.17364   0.00000   1.002E+00   0.000E+00  -2.132E-03
 739  9.51538117   0.765  -1.86617   3.60505   6.85969   2.17354   0.00000   1.002E+00   0.000E+00  -2.129E-03
 740  9.51661150   0.765  -1.86610   3.60505   6.85967   2.17345   0.00000   1.002E+00   0.000E+00  -2.125E-03
 741  9.51783835   0.765  -1.86604   3.60505   6.85964   2.17336   0.00000   1.002E+00   0.000E+00  -2.121E-03
 742  9.51906174   0.765  -1.86597   3.60506   6.85962   2.17327   0.00000   1.002E+00   0.000E+00  -2.118E-03
 743  9.52028170   0.765  -1.86591   3.60506   6.85960   2.17317   0.00000   1.002E+00   0.000E+00  -2.114E-03
 744  9.52149824   0.765  -1.86584   3.60506   6.85957   2.17308   0.00000   1.002E+00   0.000E+00  -2.110E-03
 745  9.52271138   0.765  -1.86577   3.60506   6.85955   2.17299   0.00000   1.002E+00   0.000E+00  -2.106E-03
 746  9.52392114   0.765  -1.86571   3.60506   6.85953   2.17290   0.00000   1.002E+00   0.000E+00  -2.103E-03
 747  9.52512754   0.765  -1.86564   3.60506   6.85950   2.17280   0.00000   1.002E+00   0.000E+00  -2.099E-03
 748  9.52633060   0.765  -1.86558   3.60506   6.85948   2.17271   0.00000   1.002E+00   0.000E+00  -2.095E-03
 749  9.52753034   0.765  -1.86551   3.60506   6.85946   2.17262   0.00000   1.002E+00   0.000E+00  -2.092E-03
 750  9.52872677   0.765  -1.86545   3.60506   6.85944   2.17253   0.00000   1.002E+00   0.000E+00  -2.088E-03
 751  9.52991992   0.765  -1.86539   3.60506   6.85941   2.17244   0.00000   1.002E+00   0.000E+00  -2.084E-03
 752  9.53110979   0.765  -1.86532   3.60506   6.85939   2.17235   0.00000   1.002E+00   0.000E+00  -2.080E-03
 753  9.53229642   0.765  -1.86526   3.60506   6.85937   2.17226   0.00000   1.002E+00   0.000E+00  -2.077E-03
 754  9.53347981   0.765  -1.86520   3.60506   6.85935   2.17217   0.00000   1.002E+00   0.000E+00  -2.073E-03
 755  9.53465998   0.765  -1.86513   3.60506   6.85933   2.17208   0.00000   1.002E+00   0.000E+00  -2.069E-03
 756  9.53583696   0.765  -1.86507   3.60506   6.85930   2.17198   0.00000   1.002E+00   0.000E+00  -2.065E-03
 757  9.53701075   0.765  -1.86501   3.60506   6.85928   2.17189   0.00000   1.002E+00   0.000E+00  -2.062E-03
 758  9.53818139   0.765  -1.86494   3.60507   6.85926   2.17180   0.00000   1.002E+00   0.000E+00  -2.058E-03
 759  9.53934887   0.765  -1.86488   3.60507   6.85924   2.17171   0.00000   1.002E+00   0.000E+00  -2.054E-03
 760  9.54051323   0.765  -1.86481   3.60507   6.85921   2.17162   0.00000   1.002E+00   0.000E+00  -2.051E-03
 761  9.54167447   0.765  -1.86475   3.60507   6.85919   2.17153   0.00000   1.002E+00   0.000E+00  -2.047E-03
 762  9.54283261   0.765  -1.86469   3.60507   6.85917   2.17144   0.00000   1.002E+00   0.000E+00  -2.043E-03
 763  9.54398768   0.765  -1.86462   3.60507   6.85915   2.17135   0.00000   1.002E+00   0.000E+00  -2.039E-03
 764  9.54513968   0.765  -1.86456   3.60507   6.85912   2.17126   0.00000   1.002E+00   0.000E+00  -2.036E-03
 765  9.54628863   0.765  -1.86450   3.60507   6.85910   2.17116   0.00000   1.002E+00   0.000E+00  -2.032E-03
 766  9.54743455   0.765  -1.86443   3.60507   6.85908   2.17107   0.00000   1.002E+00   0.000E+00  -2.028E-03
 767  9.54857746   0.765  -1.86437   3.60507   6.85906   2.17098   0.00000   1.002E+00   0.000E+00  -2.025E-03
 768  9.54971736   0.765  -1.86430   3.60507   6.85904   2.17089   0.00000   1.002E+00   0.000E+00  -2.021E-03
 769  9.55085428   0.765  -1.86424   3.60507   6.85901   2.17080   0.00000   1.002E+00   0.000E+00  -2.018E-03
 770  9.55198824   0.765  -1.86418   3.60507   6.85899   2.17072   0.00000   1.002E+00   0.000E+00  -2.014E-03
 771  9.55311924   0.765  -1.86412   3.60507   6.85897   2.17063   0.00000   1.002E+00   0.000E+00  -2.011E-03
 772  9.55424730   0.765  -1.86406   3.60507   6.85895   2.17054   0.00000   1.002E+00   0.000E+00  -2.008E-03
 773  9.55537244   0.765  -1.86400   3.60507   6.85893   2.17045   0.00000   1.002E+00   0.000E+00  -2.004E-03
 774  9.55649467   0.765  -1.86393   3.60508   6.85890   2.17037   0.00000   1.002E+00   0.000E+00  -2.001E-03
 775  9.55761401   0.765  -1.86387   3.60508   6.85888   2.17028   0.00000   1.002E+00   0.000E+00  -1.998E-03
 776  9.55873047   0.765  -1.86381   3.60508   6.85886   2.17019   0.00000   1.002E+00   0.000E+00  -1.995E-03
 777  9.55984407   0.765  -1.86375   3.60508   6.85884   2.17010   0.00000   1.002E+00   0.000E+00  -1.991E-03
 778  9.56095483   0.765  -1.86369   3.60508   6.85882   2.17002   0.00000   1.002E+00   0.000E+00  -1.988E-03
 779  9.56206274   0.765  -1.86362   3.60508   6.85879   2.16993   0.00000   1.002E+00   0.000E+00  -1.985E-03
 780  9.56316784   0.765  -1.86356   3.60508   6.85877   2.16984   0.00000   1.002E+00   0.000E+00  -1.982E-03
 781  9.56427014   0.765  -1.86350   3.60508   6.85875   2.16975   0.00000   1.002E+00   0.000E+00  -1.978E-03
 782  9.56536964   0.765  -1.86344   3.60508   6.85873   2.16967   0.00000   1.002E+00   0.000E+00  -1.975E-03
 783  9.56646637   0.765  -1.86338   3.60508   6.85871   2.16958   0.00000   1.002E+00   0.000E+00  -1.972E-03
 784  9.56756033   0.765  -1.86332   3.60508   6.85869   2.16949   0.00000   1.002E+00   0.000E+00  -1.969E-03
 785  9.56865155   0.765  -1.86325   3.60509   6.85866   2.16941   0.00000   1.002E+00   0.000E+00  -1.965E-03
 786  9.56974003   0.765  -1.86319   3.60509   6.85864   2.16932   0.00000   1.002E+00   0.000E+00  -1.962E-03
 787  9.57082579   0.765  -1.86313   3.60509   6.85862   2.16923   0.00000   1.002E+00   0.000E+00  -1.959E-03
 788  9.57190884   0.765  -1.86307   3.60509   6.85860   2.16914   0.00000   1.002E+00   0.000E+00  -1.956E-03
 789  9.57298919   0.765  -1.86301   3.60509   6.85858   2.16906   0.00000   1.002E+00   0.000E+00  -1.952E-03
 790  9.57406687   0.765  -1.86295   3.60509   6.85855   2.16897   0.00000   1.002E+00   0.000E+00  -1.949E-03
 791  9.57514188   0.765  -1.86289   3.60509   6.85853   2.16888   0.00000   1.002E+00   0.000E+00  -1.945E-03
 792  9.57621423   0.765  -1.86283   3.60509   6.85851   2.16880   0.00000   1.002E+00   0.000E+00  -1.942E-03
 793  9.57728395   0.765  -1.86277   3.60509   6.85849   2.16872   0.00000   1.002E+00   0.000E+00  -1.938E-03
 794  9.57835103   0.765  -1.86271   3.60509   6.85847   2.16863   0.00000   1.002E+00   0.000E+00  -1.934E-03
 795  9.57941550   0.765  -1.86265   3.60509   6.85845   2.16855   0.00000   1.002E+00   0.000E+00  -1.930E-03
 796  9.58047737   0.765  -1.86259   3.60509   6.85843   2.16846   0.00000   1.002E+00   0.000E+00  -1.927E-03
 797  9.58153664   0.765  -1.86253   3.60509   6.85841   2.16838   0.00000   1.002E+00   0.000E+00  -1.923E-03
 798  9.58259334   0.765  -1.86247   3.60509   6.85839   2.16829   0.00000   1.002E+00   0.000E+00  -1.919E-03
 799  9.58364748   0.765  -1.86241   3.60509   6.85837   2.16821   0.00000   1.002E+00   0.000E+00  -1.916E-03
 800  9.58469906   0.765  -1.86235   3.60509   6.85835   2.16812   0.00000   1.002E+00   0.000E+00  -1.912E-03
 801  9.58574810   0.765  -1.86229   3.60510   6.85832   2.16804   0.00000   1.002E+00   0.000E+00  -1.908E-03
 802  9.58679462   0.765  -1.86223   3.60510   6.85830   2.16795   0.00000   1.002E+00   0.000E+00  -1.904E-03
 803  9.58783861   0.765  -1.86217   3.60510   6.85828   2.16787   0.00000   1.002E+00   0.000E+00  -1.901E-03
 804  9.58888011   0.765  -1.86211   3.60510   6.85826   2.16778   0.00000   1.002E+00   0.000E+00  -1.897E-03
 805  9.58991911   0.765  -1.86205   3.60510   6.85824   2.16770   0.00000   1.002E+00   0.000E+00  -1.893E-03
 806  9.59095563   0.765  -1.86199   3.60510   6.85822   2.16762   0.00000   1.002E+00   0.000E+00  -1.890E-03
 807  9.59198969   0.765  -1.86193   3.60510   6.85820   2.16753   0.00000   1.002E+00   0.000E+00  -1.886E-03
 808  9.59302129   0.765  -1.86187   3.60510   6.85818   2.16745   0.00000   1.002E+00   0.000E+00  -1.882E-03
 809  9.59405044   0.765  -1.86181   3.60510   6.85816   2.16736   0.00000   1.002E+00   0.000E+00  -1.878E-03
 810  9.59507716   0.765  -1.86176   3.60510   6.85814   2.16728   0.00000   1.002E+00   0.000E+00  -1.875E-03
 811  9.59610146   0.765  -1.86170   3.60510   6.85812   2.16719   0.00000   1.002E+00   0.000E+00  -1.871E-03
 812  9.59712335   0.765  -1.86164   3.60510   6.85810   2.16711   0.00000   1.002E+00   0.000E+00  -1.868E-03
 813  9.59814284   0.765  -1.86158   3.60510   6.85808   2.16703   0.00000   1.002E+00   0.000E+00  -1.864E-03
 814  9.59915995   0.765  -1.86152   3.60510   6.85806   2.16695   0.00000   1.002E+00   0.000E+00  -1.861E-03
 815  9.60017467   0.765  -1.86146   3.60510   6.85804   2.16687   0.00000   1.002E+00   0.000E+00  -1.858E-03
 816  9.60118704   0.765  -1.86141   3.60510   6.85802   2.16679   0.00000   1.002E+00   0.000E+00  -1.855E-03
 817  9.60219704   0.765  -1.86135   3.60511   6.85800   2.16670   0.00000   1.002E+00   0.000E+00  -1.851E-03
 818  9.60320471   0.765  -1.86129   3.60511   6.85798   2.16662   0.00000   1.002E+00   0.000E+00  -1.848E-03
 819  9.60421004   0.765  -1.86123   3.60511   6.85796   2.16654   0.00000   1.002E+00   0.000E+00  -1.845E-03
 820  9.60521305   0.765  -1.86118   3.60511   6.85794   2.16646   0.00000   1.002E+00   0.000E+00  -1.842E-03
 821  9.60621374   0.765  -1.86112   3.60511   6.85792   2.16638   0.00000   1.002E+00   0.000E+00  -1.838E-03
 822  9.60721214   0.765  -1.86106   3.60511   6.85790   2.16630   0.00000   1.002E+00   0.000E+00  -1.835E-03
 823  9.60820825   0.765  -1.86100   3.60511   6.85788   2.16622   0.00000   1.002E+00   0.000E+00  -1.832E-03
 824  9.60920208   0.765  -1.86095   3.60511   6.85786   2.16613   0.00000   1.002E+00   0.000E+00  -1.829E-03
 825  9.61019364   0.764  -1.86089   3.60511   6.85784   2.16605   0.00000   1.002E+00   0.000E+00  -1.825E-03
 826  9.61118294   0.764  -1.86083   3.60511   6.85782   2.16597   0.00000   1.002E+00   0.000E+00  -1.822E-03
 827  9.61216999   0.764  -1.86077   3.60511   6.85780   2.16589   0.00000   1.002E+00   0.000E+00  -1.819E-03
 828  9.61315480   0.764  -1.86072   3.60512   6.85778   2.16581   0.00000   1.002E+00   0.000E+00  -1.816E-03
 829  9.61413739   0.764  -1.86066   3.60512   6.85776   2.16573   0.00000   1.002E+00   0.000E+00  -1.812E-03
 830  9.61511775   0.764  -1.86060   3.60512   6.85774   2.16565   0.00000   1.002E+00   0.000E+00  -1.809E-03
 831  9.61609591   0.764  -1.86054   3.60512   6.85772   2.16557   0.00000   1.002E+00   0.000E+00  -1.806E-03
 832  9.61707188   0.764  -1.86049   3.60512   6.85770   2.16548   0.00000   1.002E+00   0.000E+00  -1.803E-03
 833  9.61804565   0.764  -1.86043   3.60512   6.85768   2.16540   0.00000   1.002E+00   0.000E+00  -1.799E-03
 834  9.61901724   0.764  -1.86037   3.60512   6.85766   2.16532   0.00000   1.002E+00   0.000E+00  -1.796E-03
 835  9.61998667   0.764  -1.86032   3.60512   6.85764   2.16525   0.00000   1.002E+00   0.000E+00  -1.793E-03
 836  9.62095393   0.764  -1.86026   3.60512   6.85762   2.16517   0.00000   1.002E+00   0.000E+00  -1.790E-03
 837  9.62191905   0.764  -1.86021   3.60512   6.85760   2.16509   0.00000   1.002E+00   0.000E+00  -1.786E-03
 838  9.62288203   0.764  -1.86015   3.60512   6.85758   2.16501   0.00000   1.002E+00   0.000E+00  -1.783E-03
 839  9.62384287   0.764  -1.86010   3.60512   6.85756   2.16493   0.00000   1.002E+00   0.000E+00  -1.780E-03
 840  9.62480160   0.764  -1.86004   3.60512   6.85754   2.16485   0.00000   1.002E+00   0.000E+00  -1.777E-03
 841  9.62575821   0.764  -1.85999   3.60512   6.85752   2.16477   0.00000   1.002E+00   0.000E+00  -1.773E-03
 842  9.62671272   0.764  -1.85993   3.60512   6.85750   2.16470   0.00000   1.002E+00   0.000E+00  -1.770E-03
 843  9.62766514   0.764  -1.85988   3.60512   6.85749   2.16462   0.00000   1.002E+00   0.000E+00  -1.767E-03
 844  9.62861548   0.764  -1.85982   3.60513   6.85747   2.16454   0.00000   1.002E+00   0.000E+00  -1.764E-03
 845  9.62956373   0.764  -1.85976   3.60513   6.85745   2.16446   0.00000   1.002E+00   0.000E+00  -1.760E-03
 846  9.63050993   0.764  -1.85971   3.60513   6.85743   2.16438   0.00000   1.002E+00   0.000E+00  -1.757E-03
 847  9.63145406   0.764  -1.85965   3.60513   6.85741   2.16430   0.00000   1.002E+00   0.000E+00  -1.754E-03
 848  9.63239615   0.764  -1.85960   3.60513   6.85739   2.16423   0.00000   1.002E+00   0.000E+00  -1.751E-03
 849  9.63333620   0.764  -1.85954   3.60513   6.85737   2.16415   0.00000   1.002E+00   0.000E+00  -1.747E-03
 850  9.63427422   0.764  -1.85949   3.60513   6.85735   2.16407   0.00000   1.002E+00   0.000E+00  -1.744E-03
 851  9.63521021   0.764  -1.85943   3.60513   6.85733   2.16399   0.00000   1.002E+00   0.000E+00  -1.741E-03
 852  9.63614420   0.764  -1.85938   3.60513   6.85731   2.16391   0.00000   1.002E+00   0.000E+00  -1.737E-03
 853  9.63707618   0.764  -1.85932   3.60513   6.85729   2.16383   0.00000   1.002E+00   0.000E+00  -1.734E-03
 854  9.63800616   0.764  -1.85927   3.60513   6.85728   2.16375   0.00000   1.002E+00   0.000E+00  -1.731E-03
 855  9.63893416   0.764  -1.85921   3.60513   6.85726   2.16368   0.00000   1.002E+00   0.000E+00  -1.728E-03
 856  9.63986017   0.764  -1.85916   3.60513   6.85724   2.16360   0.00000   1.002E+00   0.000E+00  -1.724E-03
 857  9.64078422   0.764  -1.85910   3.60513   6.85722   2.16353   0.00000   1.002E+00   0.000E+00  -1.721E-03
 858  9.64170631   0.764  -1.85905   3.60513   6.85720   2.16345   0.00000   1.002E+00   0.000E+00  -1.718E-03
 859  9.64262644   0.764  -1.85900   3.60513   6.85718   2.16338   0.00000   1.002E+00   0.000E+00  -1.715E-03
 860  9.64354462   0.764  -1.85894   3.60514   6.85716   2.16330   0.00000   1.002E+00   0.000E+00  -1.711E-03
 861  9.64446087   0.764  -1.85889   3.60514   6.85715   2.16323   0.00000   1.002E+00   0.000E+00  -1.708E-03
 862  9.64537519   0.764  -1.85884   3.60514   6.85713   2.16315   0.00000   1.002E+00   0.000E+00  -1.705E-03
 863  9.64628759   0.764  -1.85878   3.60514   6.85711   2.16308   0.00000   1.002E+00   0.000E+00  -1.702E-03
 864  9.64719808   0.764  -1.85873   3.60514   6.85709   2.16300   0.00000   1.002E+00   0.000E+00  -1.698E-03
 865  9.64810666   0.764  -1.85867   3.60514   6.85707   2.16292   0.00000   1.002E+00   0.000E+00  -1.695E-03
 866  9.64901335   0.764  -1.85862   3.60514   6.85705   2.16285   0.00000   1.002E+00   0.000E+00  -1.692E-03
 867  9.64991814   0.764  -1.85857   3.60514   6.85703   2.16277   0.00000   1.002E+00   0.000E+00  -1.689E-03
 868  9.65082106   0.764  -1.85851   3.60514   6.85702   2.16270   0.00000   1.002E+00   0.000E+00  -1.685E-03
 869  9.65172210   0.764  -1.85846   3.60514   6.85700   2.16262   0.00000   1.002E+00   0.000E+00  -1.682E-03
 870  9.65262128   0.764  -1.85840   3.60514   6.85698   2.16255   0.00000   1.002E+00   0.000E+00  -1.679E-03
 871  9.65351859   0.764  -1.85835   3.60515   6.85696   2.16247   0.00000   1.002E+00   0.000E+00  -1.676E-03
 872  9.65441406   0.764  -1.85830   3.60515   6.85694   2.16240   0.00000   1.002E+00   0.000E+00  -1.672E-03
 873  9.65530769   0.764  -1.85824   3.60515   6.85692   2.16232   0.00000   1.002E+00   0.000E+00  -1.669E-03
 874  9.65619948   0.764  -1.85819   3.60515   6.85690   2.16225   0.00000   1.002E+00   0.000E+00  -1.666E-03
 875  9.65708944   0.764  -1.85813   3.60515   6.85689   2.16217   0.00000   1.002E+00   0.000E+00  -1.663E-03
 876  9.65797758   0.764  -1.85808   3.60515   6.85687   2.16210   0.00000   1.002E+00   0.000E+00  -1.659E-03
 877  9.65886392   0.764  -1.85803   3.60515   6.85685   2.16202   0.00000   1.002E+00   0.000E+00  -1.656E-03
 878  9.65974844   0.764  -1.85798   3.60515   6.85683   2.16195   0.00000   1.002E+00   0.000E+00  -1.653E-03
 879  9.66063117   0.764  -1.85793   3.60515   6.85681   2.16188   0.00000   1.002E+00   0.000E+00  -1.650E-03
 880  9.66151210   0.764  -1.85787   3.60515   6.85680   2.16181   0.00000   1.002E+00   0.000E+00  -1.646E-03
 881  9.66239126   0.764  -1.85782   3.60515   6.85678   2.16173   0.00000   1.002E+00   0.000E+00  -1.643E-03
 882  9.66326864   0.764  -1.85777   3.60515   6.85676   2.16166   0.00000   1.002E+00   0.000E+00  -1.640E-03
 883  9.66414424   0.764  -1.85772   3.60515   6.85674   2.16159   0.00000   1.002E+00   0.000E+00  -1.637E-03
 884  9.66501809   0.764  -1.85767   3.60515   6.85673   2.16151   0.00000   1.002E+00   0.000E+00  -1.633E-03
 885  9.66589018   0.764  -1.85762   3.60515   6.85671   2.16144   0.00000   1.002E+00   0.000E+00  -1.630E-03
 886  9.66676053   0.764  -1.85756   3.60515   6.85669   2.16137   0.00000   1.002E+00   0.000E+00  -1.627E-03
 887  9.66762913   0.764  -1.85751   3.60516   6.85667   2.16129   0.00000   1.002E+00   0.000E+00  -1.624E-03
 888  9.66849600   0.764  -1.85746   3.60516   6.85665   2.16122   0.00000   1.002E+00   0.000E+00  -1.620E-03
 889  9.66936114   0.764  -1.85741   3.60516   6.85664   2.16115   0.00000   1.002E+00   0.000E+00  -1.617E-03
 890  9.67022457   0.764  -1.85736   3.60516   6.85662   2.16108   0.00000   1.002E+00   0.000E+00  -1.614E-03
 891  9.67108628   0.764  -1.85731   3.60516   6.85660   2.16100   0.00000   1.002E+00   0.000E+00  -1.611E-03
 892  9.67194628   0.764  -1.85726   3.60516   6.85658   2.16093   0.00000   1.002E+00   0.000E+00  -1.607E-03
 893  9.67280458   0.764  -1.85720   3.60516   6.85657   2.16086   0.00000   1.002E+00   0.000E+00  -1.604E-03
 894  9.67366119   0.764  -1.85715   3.60516   6.85655   2.16078   0.00000   1.002E+00   0.000E+00  -1.601E-03
 895  9.67451612   0.764  -1.85710   3.60516   6.85653   2.16071   0.00000   1.002E+00   0.000E+00  -1.598E-03
 896  9.67536936   0.764  -1.85705   3.60516   6.85651   2.16064   0.00000   1.002E+00   0.000E+00  -1.594E-03
 897  9.67622094   0.764  -1.85700   3.60516   6.85650   2.16056   0.00000   1.002E+00   0.000E+00  -1.591E-03
 898  9.67707084   0.764  -1.85695   3.60516   6.85648   2.16049   0.00000   1.002E+00   0.000E+00  -1.588E-03
 899  9.67791909   0.764  -1.85690   3.60516   6.85646   2.16042   0.00000   1.002E+00   0.000E+00  -1.585E-03
 900  9.67876568   0.764  -1.85685   3.60516   6.85644   2.16035   0.00000   1.002E+00   0.000E+00  -1.583E-03
 901  9.67961062   0.764  -1.85680   3.60516   6.85643   2.16028   0.00000   1.002E+00   0.000E+00  -1.580E-03
 902  9.68045393   0.764  -1.85675   3.60516   6.85641   2.16022   0.00000   1.002E+00   0.000E+00  -1.577E-03
 903  9.68129560   0.764  -1.85670   3.60517   6.85639   2.16015   0.00000   1.002E+00   0.000E+00  -1.574E-03
 904  9.68213564   0.764  -1.85665   3.60517   6.85638   2.16008   0.00000   1.002E+00   0.000E+00  -1.571E-03
 905  9.68297406   0.764  -1.85660   3.60517   6.85636   2.16001   0.00000   1.002E+00   0.000E+00  -1.569E-03
 906  9.68381086   0.764  -1.85655   3.60517   6.85634   2.15994   0.00000   1.002E+00   0.000E+00  -1.566E-03
 907  9.68464606   0.764  -1.85650   3.60517   6.85632   2.15987   0.00000   1.002E+00   0.000E+00  -1.563E-03
 908  9.68547965   0.764  -1.85645   3.60517   6.85631   2.15980   0.00000   1.002E+00   0.000E+00  -1.560E-03
 909  9.68631164   0.764  -1.85640   3.60517   6.85629   2.15973   0.00000   1.002E+00   0.000E+00  -1.557E-03
 910  9.68714205   0.764  -1.85635   3.60517   6.85627   2.15966   0.00000   1.002E+00   0.000E+00  -1.555E-03
 911  9.68797087   0.764  -1.85630   3.60517   6.85626   2.15959   0.00000   1.002E+00   0.000E+00  -1.552E-03
 912  9.68879811   0.764  -1.85625   3.60517   6.85624   2.15952   0.00000   1.002E+00   0.000E+00  -1.549E-03
 913  9.68962378   0.764  -1.85620   3.60517   6.85622   2.15945   0.00000   1.002E+00   0.000E+00  -1.546E-03
 914  9.69044788   0.764  -1.85615   3.60518   6.85620   2.15938   0.00000   1.002E+00   0.000E+00  -1.544E-03
 915  9.69127042   0.764  -1.85610   3.60518   6.85619   2.15931   0.00000   1.002E+00   0.000E+00  -1.541E-03
 916  9.69209140   0.764  -1.85605   3.60518   6.85617   2.15924   0.00000   1.002E+00   0.000E+00  -1.538E-03
 917  9.69291084   0.764  -1.85600   3.60518   6.85615   2.15917   0.00000   1.002E+00   0.000E+00  -1.535E-03
 918  9.69372873   0.764  -1.85595   3.60518   6.85613   2.15910   0.00000   1.002E+00   0.000E+00  -1.532E-03
 919  9.69454509   0.764  -1.85590   3.60518   6.85612   2.15903   0.00000   1.002E+00   0.000E+00  -1.530E-03
 920  9.69535991   0.764  -1.85586   3.60518   6.85610   2.15896   0.00000   1.002E+00   0.000E+00  -1.527E-03
 921  9.69617321   0.764  -1.85581   3.60518   6.85609   2.15889   0.00000   1.002E+00   0.000E+00  -1.524E-03
 922  9.69698499   0.764  -1.85576   3.60518   6.85607   2.15883   0.00000   1.002E+00   0.000E+00  -1.521E-03
 923  9.69779525   0.764  -1.85571   3.60518   6.85605   2.15876   0.00000   1.002E+00   0.000E+00  -1.518E-03
 924  9.69860401   0.764  -1.85566   3.60518   6.85604   2.15869   0.00000   1.002E+00   0.000E+00  -1.516E-03
 925  9.69941126   0.764  -1.85562   3.60518   6.85602   2.15862   0.00000   1.002E+00   0.000E+00  -1.513E-03
 926  9.70021701   0.763  -1.85557   3.60518   6.85600   2.15856   0.00000   1.002E+00   0.000E+00  -1.510E-03
 927  9.70102128   0.763  -1.85552   3.60518   6.85599   2.15849   0.00000   1.002E+00   0.000E+00  -1.507E-03
 928  9.70182405   0.763  -1.85547   3.60518   6.85597   2.15842   0.00000   1.002E+00   0.000E+00  -1.505E-03
 929  9.70262534   0.763  -1.85542   3.60518   6.85596   2.15835   0.00000   1.002E+00   0.000E+00  -1.502E-03
 930  9.70342516   0.763  -1.85538   3.60519   6.85594   2.15828   0.00000   1.001E+00   0.000E+00  -1.499E-03
 931  9.70422351   0.763  -1.85533   3.60519   6.85592   2.15822   0.00000   1.001E+00   0.000E+00  -1.496E-03
 932  9.70502039   0.763  -1.85528   3.60519   6.85591   2.15815   0.00000   1.001E+00   0.000E+00  -1.493E-03
 933  9.70581582   0.763  -1.85523   3.60519   6.85589   2.15808   0.00000   1.001E+00   0.000E+00  -1.491E-03
 934  9.70660979   0.763  -1.85519   3.60519   6.85587   2.15801   0.00000   1.001E+00   0.000E+00  -1.488E-03
 935  9.70740231   0.763  -1.85514   3.60519   6.85586   2.15794   0.00000   1.001E+00   0.000E+00  -1.485E-03
 936  9.70819338   0.763  -1.85509   3.60519   6.85584   2.15788   0.00000   1.001E+00   0.000E+00  -1.482E-03
 937  9.70898302   0.763  -1.85504   3.60519   6.85582   2.15781   0.00000   1.001E+00   0.000E+00  -1.479E-03
 938  9.70977123   0.763  -1.85499   3.60519   6.85581   2.15774   0.00000   1.001E+00   0.000E+00  -1.477E-03
 939  9.71055800   0.763  -1.85495   3.60519   6.85579   2.15767   0.00000   1.001E+00   0.000E+00  -1.474E-03
 940  9.71134336   0.763  -1.85490   3.60519   6.85578   2.15761   0.00000   1.001E+00   0.000E+00  -1.471E-03
 941  9.71212730   0.763  -1.85485   3.60519   6.85576   2.15754   0.00000   1.001E+00   0.000E+00  -1.468E-03
 942  9.71290982   0.763  -1.85480   3.60519   6.85574   2.15747   0.00000   1.001E+00   0.000E+00  -1.465E-03
 943  9.71369094   0.763  -1.85476   3.60519   6.85573   2.15741   0.00000   1.001E+00   0.000E+00  -1.463E-03
 944  9.71447065   0.763  -1.85471   3.60519   6.85571   2.15734   0.00000   1.001E+00   0.000E+00  -1.460E-03
 945  9.71524897   0.763  -1.85467   3.60519   6.85570   2.15728   0.00000   1.001E+00   0.000E+00  -1.457E-03
 946  9.71602589   0.763  -1.85462   3.60520   6.85568   2.15721   0.00000   1.001E+00   0.000E+00  -1.454E-03
 947  9.71680143   0.763  -1.85457   3.60520   6.85567   2.15715   0.00000   1.001E+00   0.000E+00  -1.452E-03
 948  9.71757559   0.763  -1.85453   3.60520   6.85565   2.15708   0.00000   1.001E+00   0.000E+00  -1.449E-03
 949  9.71834836   0.763  -1.85448   3.60520   6.85563   2.15702   0.00000   1.001E+00   0.000E+00  -1.446E-03
 950  9.71911977   0.763  -1.85443   3.60520   6.85562   2.15695   0.00000   1.001E+00   0.000E+00  -1.443E-03
 951  9.71988981   0.763  -1.85439   3.60520   6.85560   2.15689   0.00000   1.001E+00   0.000E+00  -1.440E-03
 952  9.72065848   0.763  -1.85434   3.60520   6.85559   2.15682   0.00000   1.001E+00   0.000E+00  -1.438E-03
 953  9.72142580   0.763  -1.85429   3.60520   6.85557   2.15676   0.00000   1.001E+00   0.000E+00  -1.435E-03
 954  9.72219176   0.763  -1.85425   3.60520   6.85555   2.15669   0.00000   1.001E+00   0.000E+00  -1.432E-03
 955  9.72295637   0.763  -1.85420   3.60520   6.85554   2.15663   0.00000   1.001E+00   0.000E+00  -1.429E-03
 956  9.72371964   0.763  -1.85415   3.60520   6.85552   2.15656   0.00000   1.001E+00   0.000E+00  -1.426E-03
 957  9.72448157   0.763  -1.85411   3.60521   6.85551   2.15650   0.00000   1.001E+00   0.000E+00  -1.424E-03
 958  9.72524217   0.763  -1.85406   3.60521   6.85549   2.15643   0.00000   1.001E+00   0.000E+00  -1.421E-03
 959  9.72600144   0.763  -1.85401   3.60521   6.85548   2.15637   0.00000   1.001E+00   0.000E+00  -1.418E-03
 960  9.72675938   0.763  -1.85397   3.60521   6.85546   2.15630   0.00000   1.001E+00   0.000E+00  -1.415E-03
 961  9.72751600   0.763  -1.85392   3.60521   6.85544   2.15624   0.00000   1.001E+00   0.000E+00  -1.412E-03
 962  9.72827131   0.763  -1.85388   3.60521   6.85543   2.15617   0.00000   1.001E+00   0.000E+00  -1.410E-03
 963  9.72902530   0.763  -1.85383   3.60521   6.85541   2.15611   0.00000   1.001E+00   0.000E+00  -1.407E-03
 964  9.72977799   0.763  -1.85379   3.60521   6.85540   2.15605   0.00000   1.001E+00   0.000E+00  -1.405E-03
 965  9.73052938   0.763  -1.85374   3.60521   6.85538   2.15599   0.00000   1.001E+00   0.000E+00  -1.403E-03
 966  9.73127946   0.763  -1.85370   3.60521   6.85537   2.15592   0.00000   1.001E+00   0.000E+00  -1.400E-03
 967  9.73202826   0.763  -1.85365   3.60521   6.85535   2.15586   0.00000   1.001E+00   0.000E+00  -1.398E-03
 968  9.73277576   0.763  -1.85361   3.60521   6.85534   2.15580   0.00000   1.001E+00   0.000E+00  -1.396E-03
 969  9.73352198   0.763  -1.85356   3.60521   6.85532   2.15573   0.00000   1.001E+00   0.000E+00  -1.393E-03
 970  9.73426693   0.763  -1.85352   3.60521   6.85531   2.15567   0.00000   1.001E+00   0.000E+00  -1.391E-03
 971  9.73501059   0.763  -1.85347   3.60521   6.85529   2.15561   0.00000   1.001E+00   0.000E+00  -1.389E-03
 972  9.73575299   0.763  -1.85343   3.60521   6.85528   2.15555   0.00000   1.001E+00   0.000E+00  -1.387E-03
 973  9.73649411   0.763  -1.85338   3.60522   6.85526   2.15548   0.00000   1.001E+00   0.000E+00  -1.384E-03
 974  9.73723398   0.763  -1.85334   3.60522   6.85525   2.15542   0.00000   1.001E+00   0.000E+00  -1.382E-03
 975  9.73797258   0.763  -1.85330   3.60522   6.85524   2.15536   0.00000   1.001E+00   0.000E+00  -1.380E-03
 976  9.73870994   0.763  -1.85325   3.60522   6.85522   2.15529   0.00000   1.001E+00   0.000E+00  -1.377E-03
 977  9.73944604   0.763  -1.85321   3.60522   6.85521   2.15523   0.00000   1.001E+00   0.000E+00  -1.375E-03
 978  9.74018090   0.763  -1.85316   3.60522   6.85519   2.15517   0.00000   1.001E+00   0.000E+00  -1.373E-03
 979  9.74091451   0.763  -1.85312   3.60522   6.85518   2.15511   0.00000   1.001E+00   0.000E+00  -1.370E-03
 980  9.74164689   0.763  -1.85307   3.60522   6.85516   2.15504   0.00000   1.001E+00   0.000E+00  -1.368E-03
 981  9.74237804   0.763  -1.85303   3.60522   6.85515   2.15498   0.00000   1.001E+00   0.000E+00  -1.366E-03
 982  9.74310795   0.763  -1.85298   3.60522   6.85513   2.15492   0.00000   1.001E+00   0.000E+00  -1.363E-03
 983  9.74383665   0.763  -1.85294   3.60522   6.85512   2.15486   0.00000   1.001E+00   0.000E+00  -1.361E-03
 984  9.74456412   0.763  -1.85289   3.60522   6.85510   2.15479   0.00000   1.001E+00   0.000E+00  -1.359E-03
 985  9.74529037   0.763  -1.85285   3.60522   6.85509   2.15473   0.00000   1.001E+00   0.000E+00  -1.356E-03
 986  9.74601542   0.763  -1.85281   3.60522   6.85507   2.15467   0.00000   1.001E+00   0.000E+00  -1.354E-03
 987  9.74673925   0.763  -1.85276   3.60522   6.85506   2.15461   0.00000   1.001E+00   0.000E+00  -1.352E-03
 988  9.74746188   0.763  -1.85272   3.60522   6.85504   2.15455   0.00000   1.001E+00   0.000E+00  -1.349E-03
 989  9.74818331   0.763  -1.85268   3.60522   6.85503   2.15449   0.00000   1.001E+00   0.000E+00  -1.347E-03
 990  9.74890354   0.763  -1.85264   3.60522   6.85502   2.15443   0.00000   1.001E+00   0.000E+00  -1.345E-03
 991  9.74962258   0.763  -1.85259   3.60522   6.85500   2.15437   0.00000   1.001E+00   0.000E+00  -1.342E-03
 992  9.75034044   0.763  -1.85255   3.60522   6.85499   2.15431   0.00000   1.001E+00   0.000E+00  -1.340E-03
 993  9.75105710   0.763  -1.85251   3.60522   6.85497   2.15425   0.00000   1.001E+00   0.000E+00  -1.338E-03
 994  9.75177259   0.763  -1.85246   3.60522   6.85496   2.15419   0.00000   1.001E+00   0.000E+00  -1.335E-03
 995  9.75248690   0.763  -1.85242   3.60523   6.85494   2.15412   0.00000   1.001E+00   0.000E+00  -1.333E-03
 996  9.75320004   0.763  -1.85238   3.60523   6.85493   2.15406   0.00000   1.001E+00   0.000E+00  -1.331E-03
 997  9.75391200   0.763  -1.85233   3.60523   6.85491   2.15400   0.00000   1.001E+00   0.000E+00  -1.328E-03
 998  9.75462281   0.763  -1.85229   3.60523   6.85490   2.15394   0.00000   1.001E+00   0.000E+00  -1.326E-03
 999  9.75533245   0.763  -1.85225   3.60523   6.85489   2.15388   0.00000   1.001E+00   0.000E+00  -1.324E-03
1000  9.75604093   0.763  -1.85220   3.60523   6.85487   2.15382   0.00000   1.001E+00   0.000E+00  -1.321E-03
1001  9.75674826   0.763  -1.85216   3.60523   6.85486   2.15376   0.00000   1.001E+00   0.000E+00  -1.319E-03
1002  9.75745444   0.763  -1.85212   3.60523   6.85484   2.15370   0.00000   1.001E+00   0.000E+00  -1.317E-03
1003  9.75815947   0.763  -1.85207   3.60523   6.85483   2.15364   0.00000   1.001E+00   0.000E+00  -1.314E-03
1004  9.75886336   0.763  -1.85203   3.60523   6.85481   2.15358   0.00000   1.001E+00   0.000E+00  -1.312E-03
1005  9.75956612   0.763  -1.85199   3.60523   6.85480   2.15352   0.00000   1.001E+00   0.000E+00  -1.310E-03
1006  9.76026773   0.763  -1.85194   3.60523   6.85479   2.15346   0.00000   1.001E+00   0.000E+00  -1.308E-03
1007  9.76096822   0.763  -1.85190   3.60523   6.85477   2.15340   0.00000   1.001E+00   0.000E+00  -1.305E-03
1008  9.76166757   0.763  -1.85186   3.60523   6.85476   2.15334   0.00000   1.001E+00   0.000E+00  -1.303E-03
1009  9.76236581   0.763  -1.85182   3.60523   6.85474   2.15328   0.00000   1.001E+00   0.000E+00  -1.301E-03
1010  9.76306292   0.763  -1.85178   3.60523   6.85473   2.15322   0.00000   1.001E+00   0.000E+00  -1.298E-03
1011  9.76375891   0.763  -1.85173   3.60524   6.85472   2.15316   0.00000   1.001E+00   0.000E+00  -1.296E-03
1012  9.76445379   0.763  -1.85169   3.60524   6.85470   2.15311   0.00000   1.001E+00   0.000E+00  -1.294E-03
1013  9.76514756   0.763  -1.85165   3.60524   6.85469   2.15305   0.00000   1.001E+00   0.000E+00  -1.291E-03
1014  9.76584023   0.763  -1.85161   3.60524   6.85467   2.15299   0.00000   1.001E+00   0.000E+00  -1.289E-03
1015  9.76653179   0.763  -1.85156   3.60524   6.85466   2.15293   0.00000   1.001E+00   0.000E+00  -1.287E-03
1016  9.76722225   0.763  -1.85152   3.60524   6.85465   2.15287   0.00000   1.001E+00   0.000E+00  -1.284E-03
1017  9.76791161   0.763  -1.85148   3.60524   6.85463   2.15281   0.00000   1.001E+00   0.000E+00  -1.282E-03
1018  9.76859989   0.763  -1.85144   3.60524   6.85462   2.15275   0.00000   1.001E+00   0.000E+00  -1.280E-03
1019  9.76928707   0.763  -1.85139   3.60524   6.85460   2.15270   0.00000   1.001E+00   0.000E+00  -1.277E-03
1020  9.76997317   0.763  -1.85135   3.60524   6.85459   2.15264   0.00000   1.001E+00   0.000E+00  -1.275E-03
1021  9.77065818   0.763  -1.85131   3.60524   6.85458   2.15258   0.00000   1.001E+00   0.000E+00  -1.273E-03
1022  9.77134212   0.763  -1.85127   3.60525   6.85456   2.15252   0.00000   1.001E+00   0.000E+00  -1.270E-03
1023  9.77202498   0.763  -1.85123   3.60525   6.85455   2.15246   0.00000   1.001E+00   0.000E+00  -1.268E-03
1024  9.77270677   0.763  -1.85118   3.60525   6.85453   2.15240   0.00000   1.001E+00   0.000E+00  -1.266E-03
1025  9.77338749   0.763  -1.85114   3.60525   6.85452   2.15234   0.00000   1.001E+00   0.000E+00  -1.263E-03
1026  9.77406715   0.763  -1.85110   3.60525   6.85451   2.15229   0.00000   1.001E+00   0.000E+00  -1.261E-03
1027  9.77474574   0.763  -1.85106   3.60525   6.85449   2.15223   0.00000   1.001E+00   0.000E+00  -1.259E-03
1028  9.77542328   0.763  -1.85102   3.60525   6.85448   2.15217   0.00000   1.001E+00   0.000E+00  -1.257E-03
1029  9.77609976   0.763  -1.85098   3.60525   6.85447   2.15212   0.00000   1.001E+00   0.000E+00  -1.255E-03
1030  9.77677519   0.763  -1.85094   3.60525   6.85445   2.15206   0.00000   1.001E+00   0.000E+00  -1.253E-03
1031  9.77744957   0.763  -1.85090   3.60525   6.85444   2.15200   0.00000   1.001E+00   0.000E+00  -1.252E-03
1032  9.77812290   0.763  -1.85086   3.60525   6.85443   2.15195   0.00000   1.001E+00   0.000E+00  -1.250E-03
1033  9.77879519   0.763  -1.85082   3.60525   6.85441   2.15189   0.00000   1.001E+00   0.000E+00  -1.248E-03
1034  9.77946644   0.762  -1.85077   3.60525   6.85440   2.15183   0.00000   1.001E+00   0.000E+00  -1.246E-03
1035  9.78013666   0.762  -1.85073   3.60525   6.85438   2.15178   0.00000   1.001E+00   0.000E+00  -1.244E-03
1036  9.78080584   0.762  -1.85069   3.60525   6.85437   2.15172   0.00000   1.001E+00   0.000E+00  -1.242E-03
1037  9.78147400   0.762  -1.85065   3.60525   6.85436   2.15166   0.00000   1.001E+00   0.000E+00  -1.240E-03
1038  9.78214113   0.762  -1.85061   3.60526   6.85434   2.15160   0.00000   1.001E+00   0.000E+00  -1.239E-03
1039  9.78280723   0.762  -1.85057   3.60526   6.85433   2.15155   0.00000   1.001E+00   0.000E+00  -1.237E-03
1040  9.78347231   0.762  -1.85053   3.60526   6.85432   2.15149   0.00000   1.001E+00   0.000E+00  -1.235E-03
1041  9.78413638   0.762  -1.85049   3.60526   6.85430   2.15143   0.00000   1.001E+00   0.000E+00  -1.233E-03
1042  9.78479943   0.762  -1.85045   3.60526   6.85429   2.15138   0.00000   1.001E+00   0.000E+00  -1.231E-03
1043  9.78546148   0.762  -1.85041   3.60526   6.85428   2.15132   0.00000   1.001E+00   0.000E+00  -1.229E-03
1044  9.78612251   0.762  -1.85037   3.60526   6.85426   2.15126   0.00000   1.001E+00   0.000E+00  -1.227E-03
1045  9.78678254   0.762  -1.85033   3.60526   6.85425   2.15121   0.00000   1.001E+00   0.000E+00  -1.226E-03
1046  9.78744157   0.762  -1.85029   3.60526   6.85424   2.15115   0.00000   1.001E+00   0.000E+00  -1.224E-03
1047  9.78809960   0.762  -1.85025   3.60526   6.85422   2.15109   0.00000   1.001E+00   0.000E+00  -1.222E-03
1048  9.78875664   0.762  -1.85021   3.60526   6.85421   2.15104   0.00000   1.001E+00   0.000E+00  -1.220E-03
1049  9.78941268   0.762  -1.85017   3.60526   6.85420   2.15098   0.00000   1.001E+00   0.000E+00  -1.218E-03
1050  9.79006773   0.762  -1.85013   3.60526   6.85418   2.15093   0.00000   1.001E+00   0.000E+00  -1.216E-03
1051  9.79072180   0.762  -1.85009   3.60526   6.85417   2.15087   0.00000   1.001E+00   0.000E+00  -1.214E-03
1052  9.79137488   0.762  -1.85005   3.60526   6.85416   2.15082   0.00000   1.001E+00   0.000E+00  -1.212E-03
1053  9.79202698   0.762  -1.85001   3.60526   6.85414   2.15076   0.00000   1.001E+00   0.000E+00  -1.211E-03
1054  9.79267811   0.762  -1.84997   3.60526   6.85413   2.15071   0.00000   1.001E+00   0.000E+00  -1.209E-03
1055  9.79332826   0.762  -1.84993   3.60526   6.85412   2.15065   0.00000   1.001E+00   0.000E+00  -1.207E-03
1056  9.79397743   0.762  -1.84989   3.60526   6.85411   2.15060   0.00000   1.001E+00   0.000E+00  -1.205E-03
1057  9.79462564   0.762  -1.84985   3.60526   6.85409   2.15054   0.00000   1.001E+00   0.000E+00  -1.203E-03
1058  9.79527289   0.762  -1.84981   3.60526   6.85408   2.15049   0.00000   1.001E+00   0.000E+00  -1.201E-03
1059  9.79591917   0.762  -1.84977   3.60527   6.85407   2.15043   0.00000   1.001E+00   0.000E+00  -1.199E-03
1060  9.79656448   0.762  -1.84973   3.60527   6.85405   2.15037   0.00000   1.001E+00   0.000E+00  -1.198E-03
1061  9.79720885   0.762  -1.84970   3.60527   6.85404   2.15032   0.00000   1.001E+00   0.000E+00  -1.196E-03
1062  9.79785225   0.762  -1.84966   3.60527   6.85403   2.15026   0.00000   1.001E+00   0.000E+00  -1.194E-03
1063  9.79849471   0.762  -1.84962   3.60527   6.85401   2.15021   0.00000   1.001E+00   0.000E+00  -1.192E-03
1064  9.79913622   0.762  -1.84958   3.60527   6.85400   2.15015   0.00000   1.001E+00   0.000E+00  -1.190E-03
1065  9.79977678   0.762  -1.84954   3.60527   6.85399   2.15010   0.00000   1.001E+00   0.000E+00  -1.188E-03
1066  9.80041639   0.762  -1.84950   3.60527   6.85398   2.15004   0.00000   1.001E+00   0.000E+00  -1.186E-03
1067  9.80105507   0.762  -1.84946   3.60527   6.85396   2.14999   0.00000   1.001E+00   0.000E+00  -1.185E-03
1068  9.80169281   0.762  -1.84942   3.60527   6.85395   2.14993   0.00000   1.001E+00   0.000E+00  -1.183E-03
1069  9.80232961   0.762  -1.84938   3.60527   6.85394   2.14988   0.00000   1.001E+00   0.000E+00  -1.181E-03
1070  9.80296548   0.762  -1.84934   3.60527   6.85392   2.14982   0.00000   1.001E+00   0.000E+00  -1.179E-03
1071  9.80360042   0.762  -1.84930   3.60527   6.85391   2.14977   0.00000   1.001E+00   0.000E+00  -1.177E-03
1072  9.80423444   0.762  -1.84926   3.60527   6.85390   2.14972   0.00000   1.001E+00   0.000E+00  -1.175E-03
1073  9.80486753   0.762  -1.84922   3.60527   6.85389   2.14966   0.00000   1.001E+00   0.000E+00  -1.173E-03
1074  9.80549969   0.762  -1.84919   3.60527   6.85387   2.14961   0.00000   1.001E+00   0.000E+00  -1.172E-03
1075  9.80613094   0.762  -1.84915   3.60527   6.85386   2.14956   0.00000   1.001E+00   0.000E+00  -1.170E-03
1076  9.80676128   0.762  -1.84911   3.60527   6.85385   2.14950   0.00000   1.001E+00   0.000E+00  -1.168E-03
1077  9.80739070   0.762  -1.84907   3.60527   6.85384   2.14945   0.00000   1.001E+00   0.000E+00  -1.166E-03
1078  9.80801921   0.762  -1.84903   3.60527   6.85382   2.14939   0.00000   1.001E+00   0.000E+00  -1.164E-03
1079  9.80864681   0.762  -1.84899   3.60527   6.85381   2.14934   0.00000   1.001E+00   0.000E+00  -1.162E-03
1080  9.80927350   0.762  -1.84895   3.60527   6.85380   2.14929   0.00000   1.001E+00   0.000E+00  -1.160E-03
1081  9.80989929   0.762  -1.84892   3.60528   6.85379   2.14923   0.00000   1.001E+00   0.000E+00  -1.159E-03
1082  9.81052419   0.762  -1.84888   3.60528   6.85377   2.14918   0.00000   1.001E+00   0.000E+00  -1.157E-03
1083  9.81114818   0.762  -1.84884   3.60528   6.85376   2.14913   0.00000   1.001E+00   0.000E+00  -1.155E-03
1084  9.81177128   0.762  -1.84880   3.60528   6.85375   2.14907   0.00000   1.001E+00   0.000E+00  -1.153E-03
1085  9.81239348   0.762  -1.84876   3.60528   6.85374   2.14902   0.00000   1.001E+00   0.000E+00  -1.151E-03
1086  9.81301480   0.762  -1.84872   3.60528   6.85372   2.14897   0.00000   1.001E+00   0.000E+00  -1.149E-03
1087  9.81363523   0.762  -1.84868   3.60528   6.85371   2.14891   0.00000   1.001E+00   0.000E+00  -1.147E-03
1088  9.81425477   0.762  -1.84865   3.60528   6.85370   2.14886   0.00000   1.001E+00   0.000E+00  -1.146E-03
1089  9.81487343   0.762  -1.84861   3.60528   6.85369   2.14881   0.00000   1.001E+00   0.000E+00  -1.144E-03
1090  9.81549121   0.762  -1.84857   3.60528   6.85367   2.14875   0.00000   1.001E+00   0.000E+00  -1.142E-03
1091  9.81610812   0.762  -1.84853   3.60528   6.85366   2.14870   0.00000   1.001E+00   0.000E+00  -1.140E-03
