 # M = 0.45 Mo, Y = 0.2300, Z = 2.00000E-04, alpha = 1.20, X_D = 4.0E-05
 # Solar Mixture: Asplund et al. (2005)         
 # ------------------------------------------------------------------------------------------------------------
 # NMD   LOG AGE    Xc      LOG L     LOG TE    LOG Tc   LOG RHOc    M-CC       L-PP       L-CNO       L-GRA
 #        (yr)              (Lo)        (K)       (K)   (gr/cm^3)    (Mo)        (L)         (L)         (L)
 # ------------------------------------------------------------------------------------------------------------
   1  5.06142839   0.770   0.56436   3.66350   6.05731  -0.81477   0.00000   9.320E-01   0.000E+00   6.830E-02
   2  5.17652947   0.770   0.55686   3.66354   6.06100  -0.80371   0.00000   9.357E-01   0.000E+00   6.435E-02
   3  5.26742812   0.770   0.54985   3.66357   6.06444  -0.79338   0.00000   9.394E-01   0.000E+00   6.050E-02
   4  5.34255506   0.770   0.54365   3.66359   6.06747  -0.78427   0.00000   9.431E-01   0.000E+00   5.680E-02
   5  5.40658257   0.770   0.53746   3.66361   6.07050  -0.77516   0.00000   9.468E-01   0.000E+00   5.310E-02
   6  5.46237211   0.770   0.53200   3.66362   6.07317  -0.76716   0.00000   9.485E-01   0.000E+00   5.155E-02
   7  5.51180389   0.770   0.52659   3.66364   6.07581  -0.75924   0.00000   9.500E-01   0.000E+00   5.013E-02
   8  5.55617986   0.770   0.52118   3.66366   6.07845  -0.75131   0.00000   9.516E-01   0.000E+00   4.870E-02
   9  5.59643893   0.770   0.51588   3.66367   6.08103  -0.74355   0.00000   9.518E-01   0.000E+00   4.853E-02
  10  5.63328055   0.770   0.51062   3.66368   6.08359  -0.73587   0.00000   9.515E-01   0.000E+00   4.886E-02
  11  5.66723978   0.770   0.50537   3.66369   6.08615  -0.72818   0.00000   9.513E-01   0.000E+00   4.918E-02
  12  5.69873510   0.770   0.50011   3.66370   6.08871  -0.72049   0.00000   9.510E-01   0.000E+00   4.953E-02
  13  5.72809999   0.770   0.49454   3.66370   6.09140  -0.71239   0.00000   9.491E-01   0.000E+00   5.114E-02
  14  5.75560450   0.770   0.48897   3.66370   6.09410  -0.70429   0.00000   9.473E-01   0.000E+00   5.274E-02
  15  5.78147036   0.770   0.48340   3.66370   6.09679  -0.69619   0.00000   9.454E-01   0.000E+00   5.434E-02
  16  5.80588191   0.770   0.47767   3.66370   6.09956  -0.68786   0.00000   9.433E-01   0.000E+00   5.630E-02
  17  5.82899401   0.770   0.47135   3.66369   6.10261  -0.67872   0.00000   9.403E-01   0.000E+00   5.956E-02
  18  5.85093805   0.770   0.46502   3.66369   6.10565  -0.66957   0.00000   9.372E-01   0.000E+00   6.282E-02
  19  5.87182642   0.770   0.45870   3.66368   6.10869  -0.66043   0.00000   9.341E-01   0.000E+00   6.608E-02
  20  5.89175605   0.770   0.45161   3.66367   6.11209  -0.65020   0.00000   9.292E-01   0.000E+00   7.107E-02
  21  5.91081111   0.770   0.44406   3.66365   6.11572  -0.63933   0.00000   9.232E-01   0.000E+00   7.711E-02
  22  5.92906513   0.770   0.43651   3.66364   6.11934  -0.62845   0.00000   9.172E-01   0.000E+00   8.315E-02
  23  5.94658276   0.770   0.42813   3.66361   6.12335  -0.61641   0.00000   9.090E-01   0.000E+00   9.138E-02
  24  5.96342111   0.770   0.41879   3.66358   6.12781  -0.60301   0.00000   8.980E-01   0.000E+00   1.022E-01
  25  5.97963090   0.770   0.40944   3.66355   6.13228  -0.58960   0.00000   8.871E-01   0.000E+00   1.130E-01
  26  5.99525738   0.770   0.39808   3.66349   6.13767  -0.57339   0.00000   8.687E-01   0.000E+00   1.313E-01
  27  6.01034107   0.770   0.38626   3.66343   6.14328  -0.55653   0.00000   8.486E-01   0.000E+00   1.514E-01
  28  6.02491841   0.770   0.37233   3.66335   6.14986  -0.53673   0.00000   8.186E-01   0.000E+00   1.814E-01
  29  6.03902231   0.770   0.35736   3.66325   6.15692  -0.51550   0.00000   7.837E-01   0.000E+00   2.163E-01
  30  6.05268255   0.770   0.33878   3.66310   6.16566  -0.48928   0.00000   7.273E-01   0.000E+00   2.727E-01
  31  6.06592620   0.770   0.31760   3.66291   6.17557  -0.45950   0.00000   6.517E-01   0.000E+00   3.483E-01
  32  6.07877790   0.770   0.29286   3.66266   6.18708  -0.42486   0.00000   5.498E-01   0.000E+00   4.502E-01
  33  6.09126020   0.770   0.26429   3.66232   6.20031  -0.38508   0.00000   4.218E-01   0.000E+00   5.782E-01
  34  6.10339374   0.770   0.23208   3.66187   6.21513  -0.34056   0.00000   2.822E-01   0.000E+00   7.178E-01
  35  6.11519748   0.770   0.19820   3.66134   6.23061  -0.29406   0.00000   1.613E-01   0.000E+00   8.387E-01
  36  6.12668888   0.770   0.16450   3.66075   6.24588  -0.24817   0.00000   8.063E-02   0.000E+00   9.194E-01
  37  6.13788404   0.770   0.13251   3.66014   6.26031  -0.20481   0.00000   3.867E-02   0.000E+00   9.613E-01
  38  6.14879784   0.770   0.10280   3.65953   6.27366  -0.16471   0.00000   2.127E-02   0.000E+00   9.787E-01
  39  6.15944410   0.770   0.07554   3.65893   6.28585  -0.12817   0.00000   1.195E-02   0.000E+00   9.881E-01
  40  6.16983560   0.770   0.05021   3.65836   6.29707  -0.09441   0.00000   6.003E-03   0.000E+00   9.940E-01
  41  6.17998426   0.770   0.02667   3.65781   6.30748  -0.06306   0.00000   3.000E-03   0.000E+00   9.970E-01
  42  6.20208611   0.770  -0.02054   3.65666   6.32825  -0.00045   0.00000   1.000E-03   0.000E+00   9.990E-01
  43  6.22311743   0.770  -0.06161   3.65563   6.34627   0.05382   0.00000   0.000E+00   0.000E+00   1.000E+00
  44  6.24317714   0.770  -0.09780   3.65470   6.36210   0.10154   0.00000   0.000E+00   0.000E+00   1.000E+00
  45  6.26235108   0.770  -0.13015   3.65385   6.37624   0.14418   0.00000   0.000E+00   0.000E+00   1.000E+00
  46  6.28071417   0.770  -0.15944   3.65308   6.38903   0.18276   0.00000   0.000E+00   0.000E+00   1.000E+00
  47  6.29833221   0.770  -0.18600   3.65238   6.40063   0.21774   0.00000   0.000E+00   0.000E+00   1.000E+00
  48  6.31526332   0.770  -0.21045   3.65173   6.41131   0.24996   0.00000   0.000E+00   0.000E+00   1.000E+00
  49  6.33155906   0.770  -0.23316   3.65112   6.42121   0.27983   0.00000   0.000E+00   0.000E+00   1.000E+00
  50  6.34726539   0.770  -0.25425   3.65056   6.43041   0.30763   0.00000   0.000E+00   0.000E+00   1.000E+00
  51  6.36242347   0.770  -0.27391   3.65005   6.43901   0.33358   0.00000   0.000E+00   0.000E+00   1.000E+00
  52  6.37707028   0.770  -0.29232   3.64956   6.44706   0.35791   0.00000   0.000E+00   0.000E+00   1.000E+00
  53  6.39123920   0.770  -0.30964   3.64911   6.45464   0.38080   0.00000   0.000E+00   0.000E+00   1.000E+00
  54  6.40496042   0.770  -0.32598   3.64869   6.46179   0.40242   0.00000   0.000E+00   0.000E+00   1.000E+00
  55  6.41826138   0.770  -0.34149   3.64828   6.46859   0.42295   0.00000   0.000E+00   0.000E+00   1.000E+00
  56  6.43116705   0.770  -0.35627   3.64790   6.47506   0.44252   0.00000   0.000E+00   0.000E+00   1.000E+00
  57  6.44370025   0.770  -0.37042   3.64753   6.48126   0.46126   0.00000   0.000E+00   0.000E+00   1.000E+00
  58  6.45588187   0.770  -0.38384   3.64719   6.48715   0.47906   0.00000   0.000E+00   0.000E+00   1.000E+00
  59  6.46773112   0.770  -0.39663   3.64686   6.49276   0.49603   0.00000   0.000E+00   0.000E+00   1.000E+00
  60  6.47926564   0.770  -0.40903   3.64654   6.49819   0.51247   0.00000   0.000E+00   0.000E+00   1.000E+00
  61  6.49050172   0.770  -0.42087   3.64624   6.50339   0.52818   0.00000   0.000E+00   0.000E+00   1.000E+00
  62  6.50145442   0.770  -0.43221   3.64595   6.50836   0.54323   0.00000   0.000E+00   0.000E+00   1.000E+00
  63  6.51213768   0.770  -0.44332   3.64567   6.51324   0.55799   0.00000   0.000E+00   0.000E+00   1.000E+00
  64  6.52256443   0.770  -0.45377   3.64540   6.51782   0.57186   0.00000   0.000E+00   0.000E+00   1.000E+00
  65  6.53274671   0.770  -0.46408   3.64514   6.52234   0.58555   0.00000   0.000E+00   0.000E+00   1.000E+00
  66  6.54269573   0.770  -0.47389   3.64489   6.52665   0.59858   0.00000   0.000E+00   0.000E+00   1.000E+00
  67  6.55242192   0.770  -0.48352   3.64464   6.53088   0.61137   0.00000   0.000E+00   0.000E+00   1.000E+00
  68  6.56193505   0.770  -0.49273   3.64440   6.53492   0.62362   0.00000   0.000E+00   0.000E+00   1.000E+00
  69  6.57124426   0.770  -0.50180   3.64417   6.53890   0.63567   0.00000   0.000E+00   0.000E+00   1.000E+00
  70  6.58035810   0.770  -0.51046   3.64395   6.54270   0.64718   0.00000   0.000E+00   0.000E+00   1.000E+00
  71  6.58928461   0.770  -0.51907   3.64373   6.54648   0.65862   0.00000   0.000E+00   0.000E+00   1.000E+00
  72  6.59803133   0.770  -0.52719   3.64353   6.55005   0.66943   0.00000   0.000E+00   0.000E+00   1.000E+00
  73  6.60660537   0.770  -0.53531   3.64333   6.55362   0.68024   0.00000   0.000E+00   0.000E+00   1.000E+00
  74  6.61501340   0.770  -0.54305   3.64313   6.55702   0.69054   0.00000   0.000E+00   0.000E+00   1.000E+00
  75  6.62326174   0.770  -0.55069   3.64293   6.56037   0.70070   0.00000   0.000E+00   0.000E+00   1.000E+00
  76  6.63135634   0.770  -0.55817   3.64274   6.56365   0.71066   0.00000   0.000E+00   0.000E+00   1.000E+00
  77  6.63930282   0.770  -0.56534   3.64256   6.56678   0.72022   0.00000   0.000E+00   0.000E+00   1.000E+00
  78  6.64710652   0.770  -0.57250   3.64238   6.56990   0.72978   0.00000   0.000E+00   0.000E+00   1.000E+00
  79  6.65477246   0.770  -0.57936   3.64220   6.57286   0.73898   0.00000   0.000E+00   0.000E+00   1.000E+00
  80  6.66230543   0.770  -0.58609   3.64203   6.57574   0.74802   0.00000   0.000E+00   0.000E+00   1.000E+00
  81  6.66970996   0.770  -0.59281   3.64187   6.57862   0.75706   0.00000   0.000E+00   0.000E+00   1.000E+00
  82  6.67699037   0.770  -0.59916   3.64171   6.58131   0.76565   0.00000   0.000E+00   0.000E+00   1.000E+00
  83  6.68415073   0.770  -0.60547   3.64155   6.58397   0.77420   0.00000   0.000E+00   0.000E+00   1.000E+00
  84  6.69119495   0.770  -0.61178   3.64139   6.58663   0.78276   0.00000   0.000E+00   0.000E+00   1.000E+00
  85  6.69812674   0.770  -0.61773   3.64124   6.58911   0.79088   0.00000   0.000E+00   0.000E+00   1.000E+00
  86  6.70494963   0.770  -0.62366   3.64109   6.59157   0.79898   0.00000   0.000E+00   0.000E+00   1.000E+00
  87  6.71166698   0.770  -0.62958   3.64095   6.59403   0.80707   0.00000   0.000E+00   0.000E+00   1.000E+00
  88  6.71828201   0.770  -0.63522   3.64081   6.59636   0.81483   0.00000   0.000E+00   0.000E+00   1.000E+00
  89  6.72479779   0.770  -0.64077   3.64067   6.59864   0.82248   0.00000   0.000E+00   0.000E+00   1.000E+00
  90  6.73121726   0.770  -0.64633   3.64053   6.60092   0.83013   0.00000   0.000E+00   0.000E+00   1.000E+00
  91  6.73754323   0.770  -0.65175   3.64040   6.60314   0.83763   0.00000   0.000E+00   0.000E+00   1.000E+00
  92  6.74377837   0.770  -0.65696   3.64027   6.60525   0.84487   0.00000   0.000E+00   0.000E+00   1.000E+00
  93  6.74992525   0.770  -0.66216   3.64015   6.60737   0.85211   0.00000   0.000E+00   0.000E+00   1.000E+00
  94  6.75598635   0.770  -0.66737   3.64002   6.60948   0.85935   0.00000   0.000E+00   0.000E+00   1.000E+00
  95  6.76196402   0.770  -0.67232   3.63990   6.61147   0.86628   0.00000   0.000E+00   0.000E+00   1.000E+00
  96  6.76786053   0.770  -0.67720   3.63978   6.61342   0.87314   0.00000   0.000E+00   0.000E+00   1.000E+00
  97  6.77367806   0.770  -0.68208   3.63966   6.61538   0.87999   0.00000   0.000E+00   0.000E+00   1.000E+00
  98  6.77941868   0.770  -0.68695   3.63955   6.61734   0.88684   0.00000   0.000E+00   0.000E+00   1.000E+00
  99  6.78508441   0.770  -0.69154   3.63944   6.61916   0.89334   0.00000   0.000E+00   0.000E+00   1.000E+00
 100  6.79067718   0.770  -0.69611   3.63933   6.62098   0.89983   0.00000   0.000E+00   0.000E+00   1.000E+00
 101  6.79619884   0.770  -0.70068   3.63922   6.62279   0.90631   0.00000   0.000E+00   0.000E+00   1.000E+00
 102  6.80165118   0.770  -0.70525   3.63911   6.62461   0.91279   0.00000   0.000E+00   0.000E+00   1.000E+00
 103  6.80703592   0.770  -0.70957   3.63901   6.62632   0.91898   0.00000   0.000E+00   0.000E+00   1.000E+00
 104  6.81235470   0.770  -0.71384   3.63890   6.62801   0.92512   0.00000   0.000E+00   0.000E+00   1.000E+00
 105  6.81760914   0.770  -0.71812   3.63880   6.62970   0.93125   0.00000   0.000E+00   0.000E+00   1.000E+00
 106  6.82280076   0.770  -0.72240   3.63870   6.63139   0.93739   0.00000   0.000E+00   0.000E+00   1.000E+00
 107  6.82793106   0.770  -0.72654   3.63861   6.63303   0.94337   0.00000   0.000E+00   0.000E+00   1.000E+00
 108  6.83300145   0.770  -0.73054   3.63852   6.63460   0.94918   0.00000   0.000E+00   0.000E+00   1.000E+00
 109  6.83801334   0.770  -0.73454   3.63843   6.63617   0.95498   0.00000   0.000E+00   0.000E+00   1.000E+00
 110  6.84296804   0.770  -0.73854   3.63834   6.63774   0.96079   0.00000   0.000E+00   0.000E+00   1.000E+00
 111  6.84786685   0.770  -0.74254   3.63825   6.63931   0.96659   0.00000   0.000E+00   0.000E+00   1.000E+00
 112  6.85271102   0.770  -0.74633   3.63816   6.64080   0.97215   0.00000   0.000E+00   0.000E+00   1.000E+00
 113  6.85750176   0.770  -0.75007   3.63808   6.64227   0.97763   0.00000   0.000E+00   0.000E+00   1.000E+00
 114  6.86224022   0.770  -0.75381   3.63799   6.64373   0.98312   0.00000   0.000E+00   0.000E+00   1.000E+00
 115  6.86692754   0.770  -0.75755   3.63790   6.64520   0.98861   0.00000   0.000E+00   0.000E+00   1.000E+00
 116  6.87156481   0.770  -0.76129   3.63782   6.64666   0.99410   0.00000   0.000E+00   0.000E+00   1.000E+00
 117  6.87615309   0.770  -0.76483   3.63774   6.64805   0.99936   0.00000   1.465E-04   0.000E+00   9.999E-01
 118  6.88069340   0.770  -0.76833   3.63767   6.64941   1.00455   0.00000   3.334E-04   0.000E+00   9.997E-01
 119  6.88518673   0.770  -0.77182   3.63759   6.65078   1.00975   0.00000   5.204E-04   0.000E+00   9.995E-01
 120  6.88963405   0.770  -0.77531   3.63752   6.65214   1.01494   0.00000   7.074E-04   0.000E+00   9.993E-01
 121  6.89403629   0.770  -0.77880   3.63744   6.65351   1.02014   0.00000   8.944E-04   0.000E+00   9.991E-01
 122  6.89839436   0.770  -0.78219   3.63737   6.65483   1.02521   0.00000   1.000E-03   0.000E+00   9.990E-01
 123  6.90270912   0.770  -0.78545   3.63730   6.65610   1.03012   0.00000   1.000E-03   0.000E+00   9.990E-01
 124  6.90698144   0.770  -0.78871   3.63723   6.65737   1.03504   0.00000   1.000E-03   0.000E+00   9.990E-01
 125  6.91121214   0.770  -0.79196   3.63716   6.65865   1.03996   0.00000   1.000E-03   0.000E+00   9.990E-01
 126  6.91540202   0.770  -0.79522   3.63709   6.65992   1.04487   0.00000   1.000E-03   0.000E+00   9.990E-01
 127  6.91955187   0.770  -0.79848   3.63702   6.66119   1.04979   0.00000   1.000E-03   0.000E+00   9.990E-01
 128  6.92366244   0.770  -0.80159   3.63696   6.66240   1.05451   0.00000   1.000E-03   0.000E+00   9.990E-01
 129  6.92773446   0.770  -0.80463   3.63689   6.66358   1.05916   0.00000   1.000E-03   0.000E+00   9.990E-01
 130  6.93176867   0.770  -0.80767   3.63683   6.66477   1.06381   0.00000   1.000E-03   0.000E+00   9.990E-01
 131  6.93576574   0.770  -0.81071   3.63676   6.66596   1.06846   0.00000   1.000E-03   0.000E+00   9.990E-01
 132  6.93972636   0.770  -0.81375   3.63670   6.66714   1.07311   0.00000   1.000E-03   0.000E+00   9.990E-01
 133  6.94365118   0.770  -0.81679   3.63664   6.66833   1.07775   0.00000   1.000E-03   0.000E+00   9.990E-01
 134  6.94754086   0.770  -0.81972   3.63658   6.66947   1.08226   0.00000   1.000E-03   0.000E+00   9.990E-01
 135  6.95139600   0.770  -0.82255   3.63652   6.67058   1.08665   0.00000   1.000E-03   0.000E+00   9.990E-01
 136  6.95521723   0.770  -0.82539   3.63647   6.67169   1.09105   0.00000   1.000E-03   0.000E+00   9.990E-01
 137  6.95900512   0.770  -0.82822   3.63641   6.67280   1.09544   0.00000   1.000E-03   0.000E+00   9.990E-01
 138  6.96276027   0.770  -0.83106   3.63635   6.67391   1.09984   0.00000   1.000E-03   0.000E+00   9.990E-01
 139  6.96648322   0.770  -0.83389   3.63630   6.67502   1.10423   0.00000   1.000E-03   0.000E+00   9.990E-01
 140  6.97017453   0.770  -0.83673   3.63624   6.67612   1.10863   0.00000   1.000E-03   0.000E+00   9.990E-01
 141  6.97383473   0.770  -0.83937   3.63619   6.67716   1.11278   0.00000   1.000E-03   0.000E+00   9.990E-01
 142  6.97746434   0.770  -0.84201   3.63614   6.67820   1.11694   0.00000   1.000E-03   0.000E+00   9.990E-01
 143  6.98106387   0.770  -0.84464   3.63609   6.67923   1.12109   0.00000   1.000E-03   0.000E+00   9.990E-01
 144  6.98463380   0.770  -0.84728   3.63604   6.68027   1.12525   0.00000   1.000E-03   0.000E+00   9.990E-01
 145  6.98817464   0.770  -0.84992   3.63599   6.68130   1.12941   0.00000   1.000E-03   0.000E+00   9.990E-01
 146  6.99168683   0.770  -0.85256   3.63594   6.68234   1.13356   0.00000   1.000E-03   0.000E+00   9.990E-01
 147  6.99517085   0.770  -0.85520   3.63589   6.68337   1.13772   0.00000   1.000E-03   0.000E+00   9.990E-01
 148  6.99862714   0.770  -0.85767   3.63585   6.68435   1.14166   0.00000   1.124E-03   0.000E+00   9.989E-01
 149  7.00205615   0.770  -0.86012   3.63580   6.68532   1.14559   0.00000   1.256E-03   0.000E+00   9.987E-01
 150  7.00545829   0.770  -0.86258   3.63576   6.68629   1.14952   0.00000   1.388E-03   0.000E+00   9.986E-01
 151  7.00883399   0.770  -0.86504   3.63571   6.68726   1.15344   0.00000   1.520E-03   0.000E+00   9.985E-01
 152  7.01218365   0.770  -0.86749   3.63567   6.68823   1.15737   0.00000   1.652E-03   0.000E+00   9.983E-01
 153  7.01550767   0.770  -0.86995   3.63562   6.68920   1.16130   0.00000   1.784E-03   0.000E+00   9.982E-01
 154  7.01880644   0.770  -0.87240   3.63558   6.69017   1.16523   0.00000   1.916E-03   0.000E+00   9.981E-01
 155  7.02208035   0.770  -0.87479   3.63554   6.69112   1.16908   0.00000   2.000E-03   0.000E+00   9.980E-01
 156  7.02532976   0.770  -0.87708   3.63550   6.69202   1.17280   0.00000   2.000E-03   0.000E+00   9.980E-01
 157  7.02855504   0.770  -0.87936   3.63546   6.69293   1.17651   0.00000   2.000E-03   0.000E+00   9.980E-01
 158  7.03175654   0.770  -0.88164   3.63542   6.69384   1.18023   0.00000   2.000E-03   0.000E+00   9.980E-01
 159  7.03493462   0.770  -0.88392   3.63538   6.69474   1.18394   0.00000   2.000E-03   0.000E+00   9.980E-01
 160  7.03808960   0.770  -0.88621   3.63534   6.69565   1.18766   0.00000   2.000E-03   0.000E+00   9.980E-01
 161  7.04122184   0.770  -0.88849   3.63530   6.69655   1.19137   0.00000   2.000E-03   0.000E+00   9.980E-01
 162  7.04433164   0.770  -0.89077   3.63526   6.69746   1.19509   0.00000   2.000E-03   0.000E+00   9.980E-01
 163  7.04741933   0.770  -0.89302   3.63522   6.69835   1.19876   0.00000   2.025E-03   0.000E+00   9.980E-01
 164  7.05048523   0.770  -0.89514   3.63519   6.69920   1.20227   0.00000   2.139E-03   0.000E+00   9.979E-01
 165  7.05352963   0.770  -0.89726   3.63515   6.70005   1.20578   0.00000   2.253E-03   0.000E+00   9.977E-01
 166  7.05655285   0.770  -0.89938   3.63512   6.70090   1.20928   0.00000   2.367E-03   0.000E+00   9.976E-01
 167  7.05955516   0.770  -0.90150   3.63509   6.70175   1.21279   0.00000   2.481E-03   0.000E+00   9.975E-01
 168  7.06253686   0.770  -0.90362   3.63505   6.70259   1.21630   0.00000   2.595E-03   0.000E+00   9.974E-01
 169  7.06549822   0.770  -0.90574   3.63502   6.70344   1.21981   0.00000   2.709E-03   0.000E+00   9.973E-01
 170  7.06843954   0.770  -0.90786   3.63498   6.70429   1.22332   0.00000   2.824E-03   0.000E+00   9.972E-01
 171  7.07136106   0.770  -0.90998   3.63495   6.70514   1.22682   0.00000   2.938E-03   0.000E+00   9.971E-01
 172  7.07426306   0.770  -0.91203   3.63492   6.70596   1.23024   0.00000   3.000E-03   0.000E+00   9.970E-01
 173  7.07714580   0.770  -0.91400   3.63489   6.70676   1.23355   0.00000   3.000E-03   0.000E+00   9.970E-01
 174  7.08000953   0.770  -0.91596   3.63486   6.70756   1.23686   0.00000   3.000E-03   0.000E+00   9.970E-01
 175  7.08285451   0.770  -0.91792   3.63483   6.70835   1.24018   0.00000   3.000E-03   0.000E+00   9.970E-01
 176  7.08568096   0.770  -0.91989   3.63480   6.70915   1.24349   0.00000   3.000E-03   0.000E+00   9.970E-01
 177  7.08848914   0.770  -0.92185   3.63477   6.70995   1.24680   0.00000   3.000E-03   0.000E+00   9.970E-01
 178  7.09127928   0.770  -0.92381   3.63474   6.71074   1.25011   0.00000   3.000E-03   0.000E+00   9.970E-01
 179  7.09405161   0.770  -0.92578   3.63471   6.71154   1.25342   0.00000   3.000E-03   0.000E+00   9.970E-01
 180  7.09680635   0.770  -0.92774   3.63468   6.71234   1.25673   0.00000   3.000E-03   0.000E+00   9.970E-01
 181  7.09954373   0.770  -0.92970   3.63465   6.71313   1.26004   0.00000   3.002E-03   0.000E+00   9.970E-01
 182  7.10226396   0.770  -0.93152   3.63462   6.71388   1.26316   0.00000   3.101E-03   0.000E+00   9.969E-01
 183  7.10496726   0.770  -0.93334   3.63460   6.71463   1.26629   0.00000   3.201E-03   0.000E+00   9.968E-01
 184  7.10765384   0.770  -0.93516   3.63457   6.71537   1.26941   0.00000   3.301E-03   0.000E+00   9.967E-01
 185  7.11032390   0.770  -0.93698   3.63455   6.71612   1.27253   0.00000   3.400E-03   0.000E+00   9.966E-01
 186  7.11297764   0.770  -0.93880   3.63452   6.71687   1.27566   0.00000   3.500E-03   0.000E+00   9.965E-01
 187  7.11561527   0.770  -0.94062   3.63449   6.71761   1.27878   0.00000   3.599E-03   0.000E+00   9.964E-01
 188  7.11823698   0.770  -0.94244   3.63447   6.71836   1.28191   0.00000   3.699E-03   0.000E+00   9.963E-01
 189  7.12084295   0.770  -0.94426   3.63444   6.71911   1.28503   0.00000   3.798E-03   0.000E+00   9.962E-01
 190  7.12343338   0.770  -0.94608   3.63442   6.71985   1.28816   0.00000   3.898E-03   0.000E+00   9.961E-01
 191  7.12600845   0.770  -0.94789   3.63439   6.72060   1.29128   0.00000   3.998E-03   0.000E+00   9.960E-01
 192  7.12856834   0.770  -0.94958   3.63437   6.72130   1.29423   0.00000   4.092E-03   0.000E+00   9.959E-01
 193  7.13111324   0.770  -0.95126   3.63435   6.72200   1.29718   0.00000   4.185E-03   0.000E+00   9.958E-01
 194  7.13364330   0.770  -0.95295   3.63433   6.72271   1.30013   0.00000   4.279E-03   0.000E+00   9.957E-01
 195  7.13615871   0.770  -0.95463   3.63430   6.72341   1.30308   0.00000   4.373E-03   0.000E+00   9.956E-01
 196  7.13865964   0.770  -0.95631   3.63428   6.72411   1.30603   0.00000   4.467E-03   0.000E+00   9.955E-01
 197  7.14114625   0.770  -0.95799   3.63426   6.72481   1.30897   0.00000   4.561E-03   0.000E+00   9.954E-01
 198  7.14361870   0.770  -0.95968   3.63424   6.72551   1.31192   0.00000   4.655E-03   0.000E+00   9.953E-01
 199  7.14607715   0.770  -0.96136   3.63422   6.72621   1.31487   0.00000   4.748E-03   0.000E+00   9.953E-01
 200  7.14852177   0.770  -0.96304   3.63420   6.72691   1.31782   0.00000   4.842E-03   0.000E+00   9.952E-01
 201  7.15095270   0.770  -0.96473   3.63417   6.72761   1.32077   0.00000   4.936E-03   0.000E+00   9.951E-01
 202  7.15337010   0.770  -0.96637   3.63415   6.72830   1.32366   0.00000   5.028E-03   0.000E+00   9.950E-01
 203  7.15577412   0.770  -0.96792   3.63414   6.72896   1.32644   0.00000   5.117E-03   0.000E+00   9.949E-01
 204  7.15816491   0.770  -0.96947   3.63412   6.72962   1.32923   0.00000   5.205E-03   0.000E+00   9.948E-01
 205  7.16054260   0.770  -0.97103   3.63410   6.73028   1.33201   0.00000   5.294E-03   0.000E+00   9.947E-01
 206  7.16290735   0.770  -0.97258   3.63409   6.73093   1.33479   0.00000   5.382E-03   0.000E+00   9.946E-01
 207  7.16525929   0.770  -0.97413   3.63407   6.73159   1.33758   0.00000   5.471E-03   0.000E+00   9.945E-01
 208  7.16759857   0.770  -0.97568   3.63405   6.73225   1.34036   0.00000   5.559E-03   0.000E+00   9.944E-01
 209  7.16992531   0.770  -0.97724   3.63404   6.73291   1.34315   0.00000   5.648E-03   0.000E+00   9.944E-01
 210  7.17223965   0.770  -0.97879   3.63402   6.73357   1.34593   0.00000   5.736E-03   0.000E+00   9.943E-01
 211  7.17454173   0.770  -0.98034   3.63400   6.73423   1.34871   0.00000   5.825E-03   0.000E+00   9.942E-01
 212  7.17683167   0.770  -0.98189   3.63399   6.73488   1.35150   0.00000   5.913E-03   0.000E+00   9.941E-01
 213  7.17910959   0.770  -0.98345   3.63397   6.73554   1.35428   0.00000   6.003E-03   0.000E+00   9.940E-01
 214  7.18137563   0.770  -0.98488   3.63396   6.73616   1.35689   0.00000   6.170E-03   0.000E+00   9.938E-01
 215  7.18362991   0.770  -0.98631   3.63394   6.73677   1.35951   0.00000   6.337E-03   0.000E+00   9.937E-01
 216  7.18587255   0.770  -0.98775   3.63393   6.73738   1.36213   0.00000   6.504E-03   0.000E+00   9.935E-01
 217  7.18810366   0.770  -0.98918   3.63392   6.73800   1.36475   0.00000   6.671E-03   0.000E+00   9.933E-01
 218  7.19032337   0.770  -0.99061   3.63391   6.73861   1.36736   0.00000   6.838E-03   0.000E+00   9.932E-01
 219  7.19253180   0.770  -0.99205   3.63389   6.73923   1.36998   0.00000   7.005E-03   0.000E+00   9.930E-01
 220  7.19472905   0.770  -0.99348   3.63388   6.73984   1.37260   0.00000   7.172E-03   0.000E+00   9.928E-01
 221  7.19691524   0.770  -0.99491   3.63387   6.74046   1.37521   0.00000   7.339E-03   0.000E+00   9.927E-01
 222  7.19909048   0.770  -0.99635   3.63386   6.74107   1.37783   0.00000   7.506E-03   0.000E+00   9.925E-01
 223  7.20125488   0.770  -0.99778   3.63384   6.74169   1.38045   0.00000   7.673E-03   0.000E+00   9.923E-01
 224  7.20340855   0.770  -0.99921   3.63383   6.74230   1.38306   0.00000   7.840E-03   0.000E+00   9.922E-01
 225  7.20555159   0.770  -1.00064   3.63382   6.74291   1.38568   0.00000   8.006E-03   0.000E+00   9.920E-01
 226  7.20768410   0.770  -1.00196   3.63381   6.74350   1.38816   0.00000   8.163E-03   0.000E+00   9.918E-01
 227  7.20980620   0.770  -1.00329   3.63380   6.74408   1.39064   0.00000   8.320E-03   0.000E+00   9.917E-01
 228  7.21191798   0.770  -1.00461   3.63379   6.74467   1.39311   0.00000   8.477E-03   0.000E+00   9.915E-01
 229  7.21401954   0.770  -1.00593   3.63378   6.74525   1.39559   0.00000   8.633E-03   0.000E+00   9.914E-01
 230  7.21611097   0.770  -1.00726   3.63377   6.74584   1.39807   0.00000   8.790E-03   0.000E+00   9.912E-01
 231  7.21819239   0.770  -1.00858   3.63376   6.74642   1.40055   0.00000   8.947E-03   0.000E+00   9.911E-01
 232  7.22026388   0.770  -1.00990   3.63375   6.74701   1.40303   0.00000   9.104E-03   0.000E+00   9.909E-01
 233  7.22232553   0.770  -1.01122   3.63374   6.74759   1.40551   0.00000   9.261E-03   0.000E+00   9.907E-01
 234  7.22437744   0.770  -1.01255   3.63373   6.74818   1.40799   0.00000   9.418E-03   0.000E+00   9.906E-01
 235  7.22641970   0.770  -1.01387   3.63373   6.74876   1.41047   0.00000   9.574E-03   0.000E+00   9.904E-01
 236  7.22845241   0.770  -1.01519   3.63372   6.74935   1.41295   0.00000   9.731E-03   0.000E+00   9.903E-01
 237  7.23047564   0.770  -1.01652   3.63371   6.74993   1.41543   0.00000   9.888E-03   0.000E+00   9.901E-01
 238  7.23248950   0.770  -1.01781   3.63370   6.75051   1.41787   0.00000   1.004E-02   0.000E+00   9.900E-01
 239  7.23449405   0.770  -1.01903   3.63369   6.75106   1.42021   0.00000   1.019E-02   0.000E+00   9.898E-01
 240  7.23648940   0.770  -1.02025   3.63368   6.75161   1.42255   0.00000   1.034E-02   0.000E+00   9.897E-01
 241  7.23847562   0.770  -1.02147   3.63368   6.75216   1.42489   0.00000   1.049E-02   0.000E+00   9.895E-01
 242  7.24045280   0.770  -1.02269   3.63367   6.75271   1.42723   0.00000   1.064E-02   0.000E+00   9.894E-01
 243  7.24242102   0.770  -1.02391   3.63366   6.75327   1.42957   0.00000   1.079E-02   0.000E+00   9.892E-01
 244  7.24438036   0.770  -1.02513   3.63366   6.75382   1.43192   0.00000   1.094E-02   0.000E+00   9.891E-01
 245  7.24633090   0.770  -1.02635   3.63365   6.75437   1.43426   0.00000   1.108E-02   0.000E+00   9.889E-01
 246  7.24827272   0.770  -1.02757   3.63364   6.75492   1.43660   0.00000   1.123E-02   0.000E+00   9.888E-01
 247  7.25020589   0.770  -1.02879   3.63364   6.75547   1.43894   0.00000   1.138E-02   0.000E+00   9.886E-01
 248  7.25213050   0.770  -1.03001   3.63363   6.75603   1.44128   0.00000   1.153E-02   0.000E+00   9.885E-01
 249  7.25404661   0.770  -1.03122   3.63362   6.75658   1.44362   0.00000   1.168E-02   0.000E+00   9.883E-01
 250  7.25595431   0.770  -1.03244   3.63362   6.75713   1.44596   0.00000   1.183E-02   0.000E+00   9.882E-01
 251  7.25785367   0.770  -1.03366   3.63361   6.75768   1.44830   0.00000   1.198E-02   0.000E+00   9.880E-01
 252  7.25974475   0.770  -1.03480   3.63361   6.75821   1.45053   0.00000   1.218E-02   0.000E+00   9.878E-01
 253  7.26162764   0.770  -1.03592   3.63360   6.75873   1.45274   0.00000   1.239E-02   0.000E+00   9.876E-01
 254  7.26350240   0.770  -1.03704   3.63360   6.75925   1.45496   0.00000   1.260E-02   0.000E+00   9.874E-01
 255  7.26536910   0.770  -1.03817   3.63360   6.75977   1.45717   0.00000   1.281E-02   0.000E+00   9.872E-01
 256  7.26722781   0.770  -1.03929   3.63360   6.76029   1.45938   0.00000   1.302E-02   0.000E+00   9.870E-01
 257  7.26907860   0.770  -1.04041   3.63359   6.76081   1.46159   0.00000   1.323E-02   0.000E+00   9.868E-01
 258  7.27092154   0.770  -1.04153   3.63359   6.76134   1.46380   0.00000   1.345E-02   0.000E+00   9.866E-01
 259  7.27275669   0.770  -1.04265   3.63359   6.76186   1.46602   0.00000   1.366E-02   0.000E+00   9.863E-01
 260  7.27458411   0.770  -1.04377   3.63359   6.76238   1.46823   0.00000   1.387E-02   0.000E+00   9.861E-01
 261  7.27640388   0.770  -1.04490   3.63358   6.76290   1.47044   0.00000   1.408E-02   0.000E+00   9.859E-01
 262  7.27821606   0.770  -1.04602   3.63358   6.76342   1.47265   0.00000   1.429E-02   0.000E+00   9.857E-01
 263  7.28002070   0.770  -1.04714   3.63358   6.76394   1.47486   0.00000   1.450E-02   0.000E+00   9.855E-01
 264  7.28181788   0.770  -1.04826   3.63357   6.76446   1.47708   0.00000   1.471E-02   0.000E+00   9.853E-01
 265  7.28360765   0.770  -1.04938   3.63357   6.76499   1.47929   0.00000   1.492E-02   0.000E+00   9.851E-01
 266  7.28539008   0.770  -1.05045   3.63357   6.76549   1.48142   0.00000   1.513E-02   0.000E+00   9.849E-01
 267  7.28716522   0.770  -1.05148   3.63357   6.76598   1.48352   0.00000   1.532E-02   0.000E+00   9.847E-01
 268  7.28893313   0.770  -1.05251   3.63357   6.76648   1.48561   0.00000   1.552E-02   0.000E+00   9.845E-01
 269  7.29069388   0.770  -1.05354   3.63357   6.76697   1.48770   0.00000   1.572E-02   0.000E+00   9.843E-01
 270  7.29244752   0.770  -1.05457   3.63357   6.76746   1.48979   0.00000   1.592E-02   0.000E+00   9.841E-01
 271  7.29419410   0.770  -1.05560   3.63357   6.76795   1.49188   0.00000   1.612E-02   0.000E+00   9.839E-01
 272  7.29593369   0.770  -1.05664   3.63357   6.76845   1.49397   0.00000   1.632E-02   0.000E+00   9.837E-01
 273  7.29766634   0.770  -1.05767   3.63357   6.76894   1.49607   0.00000   1.652E-02   0.000E+00   9.835E-01
 274  7.29939210   0.770  -1.05870   3.63357   6.76943   1.49816   0.00000   1.672E-02   0.000E+00   9.833E-01
 275  7.30111103   0.770  -1.05973   3.63357   6.76993   1.50025   0.00000   1.692E-02   0.000E+00   9.831E-01
 276  7.30282319   0.770  -1.06076   3.63357   6.77042   1.50234   0.00000   1.712E-02   0.000E+00   9.829E-01
 277  7.30452862   0.770  -1.06179   3.63357   6.77091   1.50443   0.00000   1.732E-02   0.000E+00   9.827E-01
 278  7.30622738   0.770  -1.06282   3.63357   6.77141   1.50652   0.00000   1.752E-02   0.000E+00   9.825E-01
 279  7.30791953   0.770  -1.06385   3.63357   6.77190   1.50862   0.00000   1.772E-02   0.000E+00   9.823E-01
 280  7.30960510   0.770  -1.06489   3.63357   6.77239   1.51071   0.00000   1.792E-02   0.000E+00   9.821E-01
 281  7.31128416   0.770  -1.06587   3.63357   6.77287   1.51273   0.00000   1.815E-02   0.000E+00   9.819E-01
 282  7.31295675   0.770  -1.06681   3.63357   6.77334   1.51471   0.00000   1.840E-02   0.000E+00   9.816E-01
 283  7.31462293   0.770  -1.06776   3.63358   6.77381   1.51668   0.00000   1.865E-02   0.000E+00   9.814E-01
 284  7.31628273   0.770  -1.06871   3.63358   6.77427   1.51866   0.00000   1.890E-02   0.000E+00   9.811E-01
 285  7.31793622   0.770  -1.06966   3.63358   6.77474   1.52063   0.00000   1.915E-02   0.000E+00   9.808E-01
 286  7.31958344   0.770  -1.07060   3.63358   6.77521   1.52261   0.00000   1.940E-02   0.000E+00   9.806E-01
 287  7.32122443   0.770  -1.07155   3.63359   6.77568   1.52458   0.00000   1.965E-02   0.000E+00   9.803E-01
 288  7.32285924   0.770  -1.07250   3.63359   6.77614   1.52656   0.00000   1.990E-02   0.000E+00   9.801E-01
 289  7.32448793   0.770  -1.07344   3.63359   6.77661   1.52853   0.00000   2.016E-02   0.000E+00   9.798E-01
 290  7.32611053   0.770  -1.07439   3.63359   6.77708   1.53051   0.00000   2.041E-02   0.000E+00   9.796E-01
 291  7.32772708   0.770  -1.07534   3.63360   6.77755   1.53248   0.00000   2.066E-02   0.000E+00   9.793E-01
 292  7.32933765   0.770  -1.07628   3.63360   6.77801   1.53446   0.00000   2.091E-02   0.000E+00   9.791E-01
 293  7.33094226   0.770  -1.07723   3.63360   6.77848   1.53643   0.00000   2.116E-02   0.000E+00   9.788E-01
 294  7.33254097   0.770  -1.07818   3.63360   6.77895   1.53841   0.00000   2.141E-02   0.000E+00   9.786E-01
 295  7.33413381   0.770  -1.07912   3.63361   6.77942   1.54038   0.00000   2.166E-02   0.000E+00   9.783E-01
 296  7.33572084   0.770  -1.08007   3.63361   6.77988   1.54235   0.00000   2.192E-02   0.000E+00   9.781E-01
 297  7.33730208   0.770  -1.08097   3.63361   6.78033   1.54425   0.00000   2.220E-02   0.000E+00   9.778E-01
 298  7.33887759   0.770  -1.08183   3.63362   6.78078   1.54611   0.00000   2.249E-02   0.000E+00   9.775E-01
 299  7.34044740   0.770  -1.08270   3.63362   6.78122   1.54797   0.00000   2.279E-02   0.000E+00   9.772E-01
 300  7.34201156   0.770  -1.08357   3.63363   6.78167   1.54983   0.00000   2.309E-02   0.000E+00   9.769E-01
 301  7.34357011   0.770  -1.08444   3.63363   6.78211   1.55169   0.00000   2.339E-02   0.000E+00   9.766E-01
 302  7.34512308   0.770  -1.08531   3.63364   6.78256   1.55355   0.00000   2.368E-02   0.000E+00   9.763E-01
 303  7.34667052   0.770  -1.08617   3.63365   6.78300   1.55541   0.00000   2.398E-02   0.000E+00   9.760E-01
 304  7.34821246   0.770  -1.08704   3.63365   6.78345   1.55727   0.00000   2.428E-02   0.000E+00   9.757E-01
 305  7.34974895   0.770  -1.08791   3.63366   6.78389   1.55913   0.00000   2.457E-02   0.000E+00   9.754E-01
 306  7.35128003   0.770  -1.08878   3.63366   6.78433   1.56099   0.00000   2.487E-02   0.000E+00   9.751E-01
 307  7.35280572   0.770  -1.08965   3.63367   6.78478   1.56285   0.00000   2.517E-02   0.000E+00   9.748E-01
 308  7.35432607   0.770  -1.09051   3.63367   6.78522   1.56471   0.00000   2.546E-02   0.000E+00   9.745E-01
 309  7.35584112   0.770  -1.09138   3.63368   6.78567   1.56657   0.00000   2.576E-02   0.000E+00   9.742E-01
 310  7.35735091   0.770  -1.09225   3.63368   6.78611   1.56843   0.00000   2.606E-02   0.000E+00   9.739E-01
 311  7.35885546   0.770  -1.09312   3.63369   6.78656   1.57029   0.00000   2.636E-02   0.000E+00   9.736E-01
 312  7.36035482   0.770  -1.09399   3.63369   6.78700   1.57215   0.00000   2.665E-02   0.000E+00   9.733E-01
 313  7.36184902   0.770  -1.09485   3.63370   6.78745   1.57401   0.00000   2.695E-02   0.000E+00   9.731E-01
 314  7.36333809   0.770  -1.09566   3.63371   6.78787   1.57578   0.00000   2.728E-02   0.000E+00   9.727E-01
 315  7.36482208   0.770  -1.09645   3.63371   6.78829   1.57753   0.00000   2.762E-02   0.000E+00   9.724E-01
 316  7.36630101   0.770  -1.09725   3.63372   6.78871   1.57928   0.00000   2.795E-02   0.000E+00   9.720E-01
 317  7.36777493   0.770  -1.09804   3.63373   6.78914   1.58104   0.00000   2.829E-02   0.000E+00   9.717E-01
 318  7.36924386   0.770  -1.09884   3.63374   6.78956   1.58279   0.00000   2.863E-02   0.000E+00   9.714E-01
 319  7.37070784   0.770  -1.09963   3.63374   6.78998   1.58455   0.00000   2.896E-02   0.000E+00   9.710E-01
 320  7.37216690   0.770  -1.10042   3.63375   6.79040   1.58630   0.00000   2.930E-02   0.000E+00   9.707E-01
 321  7.37362107   0.770  -1.10122   3.63376   6.79082   1.58805   0.00000   2.964E-02   0.000E+00   9.704E-01
 322  7.37507039   0.770  -1.10201   3.63376   6.79124   1.58981   0.00000   2.998E-02   0.000E+00   9.700E-01
 323  7.37651489   0.770  -1.10281   3.63377   6.79167   1.59156   0.00000   3.031E-02   0.000E+00   9.697E-01
 324  7.37795461   0.770  -1.10360   3.63378   6.79209   1.59331   0.00000   3.065E-02   0.000E+00   9.694E-01
 325  7.37938956   0.770  -1.10439   3.63379   6.79251   1.59507   0.00000   3.099E-02   0.000E+00   9.690E-01
 326  7.38081979   0.770  -1.10519   3.63379   6.79293   1.59682   0.00000   3.132E-02   0.000E+00   9.687E-01
 327  7.38224533   0.770  -1.10598   3.63380   6.79335   1.59857   0.00000   3.166E-02   0.000E+00   9.683E-01
 328  7.38366620   0.770  -1.10677   3.63381   6.79377   1.60033   0.00000   3.200E-02   0.000E+00   9.680E-01
 329  7.38508244   0.770  -1.10757   3.63382   6.79420   1.60208   0.00000   3.233E-02   0.000E+00   9.677E-01
 330  7.38649407   0.770  -1.10836   3.63382   6.79462   1.60383   0.00000   3.267E-02   0.000E+00   9.673E-01
 331  7.38790113   0.770  -1.10916   3.63383   6.79504   1.60558   0.00000   3.301E-02   0.000E+00   9.670E-01
 332  7.38930365   0.770  -1.10988   3.63384   6.79544   1.60724   0.00000   3.338E-02   0.000E+00   9.666E-01
 333  7.39070165   0.770  -1.11061   3.63385   6.79584   1.60889   0.00000   3.375E-02   0.000E+00   9.662E-01
 334  7.39209517   0.770  -1.11133   3.63386   6.79624   1.61054   0.00000   3.412E-02   0.000E+00   9.659E-01
 335  7.39348423   0.770  -1.11205   3.63387   6.79664   1.61219   0.00000   3.449E-02   0.000E+00   9.655E-01
 336  7.39486886   0.770  -1.11278   3.63388   6.79705   1.61384   0.00000   3.486E-02   0.000E+00   9.651E-01
 337  7.39624909   0.770  -1.11350   3.63389   6.79745   1.61549   0.00000   3.524E-02   0.000E+00   9.648E-01
 338  7.39762494   0.770  -1.11423   3.63390   6.79785   1.61714   0.00000   3.561E-02   0.000E+00   9.644E-01
 339  7.39899646   0.770  -1.11495   3.63391   6.79825   1.61880   0.00000   3.598E-02   0.000E+00   9.640E-01
 340  7.40036365   0.770  -1.11568   3.63392   6.79865   1.62045   0.00000   3.635E-02   0.000E+00   9.637E-01
 341  7.40172656   0.770  -1.11640   3.63393   6.79905   1.62210   0.00000   3.672E-02   0.000E+00   9.633E-01
 342  7.40308520   0.770  -1.11713   3.63394   6.79945   1.62375   0.00000   3.709E-02   0.000E+00   9.629E-01
 343  7.40443960   0.770  -1.11785   3.63394   6.79986   1.62540   0.00000   3.746E-02   0.000E+00   9.625E-01
 344  7.40578979   0.770  -1.11858   3.63395   6.80026   1.62705   0.00000   3.783E-02   0.000E+00   9.622E-01
 345  7.40713580   0.770  -1.11930   3.63396   6.80066   1.62870   0.00000   3.820E-02   0.000E+00   9.618E-01
 346  7.40847765   0.770  -1.12003   3.63397   6.80106   1.63036   0.00000   3.858E-02   0.000E+00   9.614E-01
 347  7.40981537   0.770  -1.12075   3.63398   6.80146   1.63201   0.00000   3.895E-02   0.000E+00   9.611E-01
 348  7.41114898   0.770  -1.12148   3.63399   6.80186   1.63366   0.00000   3.932E-02   0.000E+00   9.607E-01
 349  7.41247850   0.770  -1.12220   3.63400   6.80226   1.63531   0.00000   3.969E-02   0.000E+00   9.603E-01
 350  7.41380397   0.770  -1.12292   3.63401   6.80266   1.63695   0.00000   4.007E-02   0.000E+00   9.599E-01
 351  7.41512540   0.770  -1.12358   3.63402   6.80304   1.63850   0.00000   4.052E-02   0.000E+00   9.595E-01
 352  7.41644283   0.770  -1.12424   3.63403   6.80343   1.64005   0.00000   4.098E-02   0.000E+00   9.590E-01
 353  7.41775627   0.770  -1.12490   3.63405   6.80381   1.64160   0.00000   4.143E-02   0.000E+00   9.586E-01
 354  7.41906575   0.770  -1.12556   3.63406   6.80419   1.64316   0.00000   4.188E-02   0.000E+00   9.581E-01
 355  7.42037130   0.770  -1.12622   3.63407   6.80457   1.64471   0.00000   4.233E-02   0.000E+00   9.577E-01
 356  7.42167293   0.770  -1.12688   3.63408   6.80495   1.64626   0.00000   4.278E-02   0.000E+00   9.572E-01
 357  7.42297068   0.770  -1.12754   3.63409   6.80534   1.64781   0.00000   4.323E-02   0.000E+00   9.568E-01
 358  7.42426455   0.770  -1.12820   3.63410   6.80572   1.64937   0.00000   4.368E-02   0.000E+00   9.563E-01
 359  7.42555459   0.770  -1.12886   3.63412   6.80610   1.65092   0.00000   4.413E-02   0.000E+00   9.559E-01
 360  7.42684080   0.770  -1.12952   3.63413   6.80648   1.65247   0.00000   4.458E-02   0.000E+00   9.554E-01
 361  7.42812321   0.770  -1.13018   3.63414   6.80686   1.65402   0.00000   4.503E-02   0.000E+00   9.550E-01
 362  7.42940185   0.770  -1.13084   3.63415   6.80725   1.65558   0.00000   4.548E-02   0.000E+00   9.545E-01
 363  7.43067674   0.770  -1.13149   3.63416   6.80763   1.65713   0.00000   4.593E-02   0.000E+00   9.541E-01
 364  7.43194789   0.770  -1.13215   3.63417   6.80801   1.65868   0.00000   4.638E-02   0.000E+00   9.536E-01
 365  7.43321534   0.770  -1.13281   3.63418   6.80839   1.66024   0.00000   4.683E-02   0.000E+00   9.532E-01
 366  7.43447909   0.770  -1.13347   3.63420   6.80877   1.66179   0.00000   4.728E-02   0.000E+00   9.527E-01
 367  7.43573918   0.770  -1.13413   3.63421   6.80916   1.66334   0.00000   4.773E-02   0.000E+00   9.523E-01
 368  7.43699563   0.770  -1.13479   3.63422   6.80954   1.66489   0.00000   4.818E-02   0.000E+00   9.518E-01
 369  7.43824845   0.770  -1.13545   3.63423   6.80992   1.66645   0.00000   4.863E-02   0.000E+00   9.514E-01
 370  7.43949766   0.770  -1.13610   3.63424   6.81030   1.66798   0.00000   4.910E-02   0.000E+00   9.509E-01
 371  7.44074329   0.770  -1.13670   3.63426   6.81066   1.66944   0.00000   4.962E-02   0.000E+00   9.504E-01
 372  7.44198536   0.770  -1.13730   3.63427   6.81103   1.67090   0.00000   5.014E-02   0.000E+00   9.499E-01
 373  7.44322389   0.770  -1.13790   3.63428   6.81139   1.67236   0.00000   5.065E-02   0.000E+00   9.493E-01
 374  7.44445890   0.770  -1.13850   3.63430   6.81176   1.67381   0.00000   5.117E-02   0.000E+00   9.488E-01
 375  7.44569040   0.770  -1.13909   3.63431   6.81212   1.67527   0.00000   5.169E-02   0.000E+00   9.483E-01
 376  7.44691842   0.770  -1.13969   3.63432   6.81248   1.67673   0.00000   5.221E-02   0.000E+00   9.478E-01
 377  7.44814298   0.770  -1.14029   3.63433   6.81285   1.67819   0.00000   5.273E-02   0.000E+00   9.473E-01
 378  7.44936410   0.770  -1.14089   3.63435   6.81321   1.67965   0.00000   5.325E-02   0.000E+00   9.467E-01
 379  7.45058179   0.770  -1.14149   3.63436   6.81358   1.68110   0.00000   5.377E-02   0.000E+00   9.462E-01
 380  7.45179608   0.770  -1.14209   3.63437   6.81394   1.68256   0.00000   5.429E-02   0.000E+00   9.457E-01
 381  7.45300698   0.770  -1.14268   3.63439   6.81431   1.68402   0.00000   5.481E-02   0.000E+00   9.452E-01
 382  7.45421452   0.770  -1.14328   3.63440   6.81467   1.68548   0.00000   5.533E-02   0.000E+00   9.447E-01
 383  7.45541870   0.770  -1.14388   3.63441   6.81503   1.68694   0.00000   5.585E-02   0.000E+00   9.442E-01
 384  7.45661956   0.770  -1.14448   3.63443   6.81540   1.68839   0.00000   5.637E-02   0.000E+00   9.436E-01
 385  7.45781711   0.770  -1.14508   3.63444   6.81576   1.68985   0.00000   5.688E-02   0.000E+00   9.431E-01
 386  7.45901136   0.770  -1.14568   3.63445   6.81613   1.69131   0.00000   5.740E-02   0.000E+00   9.426E-01
 387  7.46020234   0.770  -1.14628   3.63447   6.81649   1.69277   0.00000   5.792E-02   0.000E+00   9.421E-01
 388  7.46139006   0.770  -1.14687   3.63448   6.81686   1.69423   0.00000   5.844E-02   0.000E+00   9.416E-01
 389  7.46257454   0.770  -1.14747   3.63449   6.81722   1.69568   0.00000   5.896E-02   0.000E+00   9.410E-01
 390  7.46375580   0.770  -1.14807   3.63451   6.81759   1.69714   0.00000   5.948E-02   0.000E+00   9.405E-01
 391  7.46493386   0.770  -1.14867   3.63452   6.81795   1.69860   0.00000   6.000E-02   0.000E+00   9.400E-01
 392  7.48567309   0.770  -1.15843   3.63478   6.82423   1.72325   0.00000   6.963E-02   0.000E+00   9.304E-01
 393  7.50546691   0.770  -1.16745   3.63507   6.83028   1.74666   0.00000   8.110E-02   0.000E+00   9.189E-01
 394  7.52439778   0.770  -1.17584   3.63538   6.83616   1.76896   0.00000   9.375E-02   0.000E+00   9.063E-01
 395  7.54253780   0.770  -1.18367   3.63569   6.84188   1.79029   0.00000   1.072E-01   0.000E+00   8.928E-01
 396  7.55995042   0.770  -1.19065   3.63602   6.84735   1.80995   0.00000   1.217E-01   0.000E+00   8.783E-01
 397  7.57669172   0.770  -1.19723   3.63636   6.85268   1.82875   0.00000   1.372E-01   0.000E+00   8.628E-01
 398  7.59281156   0.770  -1.20340   3.63671   6.85788   1.84669   0.00000   1.538E-01   0.000E+00   8.462E-01
 399  7.60835443   0.770  -1.20891   3.63707   6.86285   1.86315   0.00000   1.717E-01   0.000E+00   8.283E-01
 400  7.62336020   0.770  -1.21426   3.63744   6.86775   1.87920   0.00000   1.900E-01   0.000E+00   8.100E-01
 401  7.63786476   0.770  -1.21897   3.63779   6.87242   1.89368   0.00000   2.097E-01   0.000E+00   7.903E-01
 402  7.65190051   0.770  -1.22357   3.63815   6.87702   1.90782   0.00000   2.299E-01   0.000E+00   7.701E-01
 403  7.66549682   0.770  -1.22766   3.63851   6.88134   1.92040   0.00000   2.517E-01   0.000E+00   7.483E-01
 404  7.67868036   0.770  -1.23170   3.63886   6.88563   1.93279   0.00000   2.736E-01   0.000E+00   7.264E-01
 405  7.69147546   0.770  -1.23526   3.63919   6.88972   1.94370   0.00000   2.968E-01   0.000E+00   7.032E-01
 406  7.70390435   0.770  -1.23883   3.63952   6.89381   1.95462   0.00000   3.199E-01   0.000E+00   6.801E-01
 407  7.71598742   0.770  -1.24202   3.63983   6.89761   1.96395   0.00000   3.435E-01   0.000E+00   6.565E-01
 408  7.72774340   0.770  -1.24516   3.64013   6.90137   1.97304   0.00000   3.673E-01   0.000E+00   6.327E-01
 409  7.73918952   0.770  -1.24816   3.64043   6.90503   1.98173   0.00000   3.915E-01   0.000E+00   6.085E-01
 410  7.75034169   0.770  -1.25083   3.64071   6.90847   1.98942   0.00000   4.156E-01   0.000E+00   5.844E-01
 411  7.76121465   0.770  -1.25339   3.64098   6.91180   1.99640   0.00000   4.404E-01   0.000E+00   5.596E-01
 412  7.77182203   0.769  -1.25589   3.64123   6.91502   2.00281   0.00000   4.652E-01   0.000E+00   5.348E-01
 413  7.78217650   0.769  -1.25833   3.64146   6.91814   2.00867   0.00000   4.901E-01   0.000E+00   5.099E-01
 414  7.79228983   0.769  -1.26078   3.64166   6.92114   2.01396   0.00000   5.146E-01   0.000E+00   4.854E-01
 415  7.80217301   0.769  -1.26318   3.64185   6.92404   2.01866   0.00000   5.399E-01   0.000E+00   4.601E-01
 416  7.81183627   0.769  -1.26557   3.64201   6.92686   2.02284   0.00000   5.644E-01   0.000E+00   4.356E-01
 417  7.82128919   0.769  -1.26797   3.64216   6.92958   2.02651   0.00000   5.895E-01   0.000E+00   4.105E-01
 418  7.83054073   0.769  -1.27035   3.64227   6.93222   2.02969   0.00000   6.137E-01   0.000E+00   3.863E-01
 419  7.83959929   0.769  -1.27276   3.64235   6.93476   2.03241   0.00044   6.386E-01   0.000E+00   3.614E-01
 420  7.84847277   0.769  -1.27517   3.64242   6.93712   2.03472   0.00176   6.627E-01   0.000E+00   3.373E-01
 421  7.85716856   0.769  -1.27759   3.64247   6.93931   2.03666   0.00415   6.868E-01   0.000E+00   3.132E-01
 422  7.86569366   0.769  -1.28003   3.64249   6.94134   2.03828   0.00632   7.111E-01   0.000E+00   2.889E-01
 423  7.87405462   0.769  -1.28247   3.64249   6.94319   2.03958   0.00833   7.345E-01   0.000E+00   2.655E-01
 424  7.88225766   0.769  -1.28492   3.64246   6.94489   2.04060   0.01060   7.576E-01   0.000E+00   2.424E-01
 425  7.89030862   0.769  -1.28738   3.64241   6.94644   2.04133   0.01297   7.797E-01   0.000E+00   2.203E-01
 426  7.89821305   0.769  -1.28985   3.64234   6.94787   2.04180   0.01488   8.024E-01   0.000E+00   1.976E-01
 427  7.90597618   0.769  -1.29231   3.64226   6.94917   2.04204   0.01770   8.242E-01   0.000E+00   1.758E-01
 428  7.91360298   0.769  -1.29476   3.64216   6.95032   2.04205   0.01960   8.441E-01   0.000E+00   1.559E-01
 429  7.92109814   0.769  -1.29720   3.64204   6.95136   2.04185   0.02159   8.646E-01   0.000E+00   1.354E-01
 430  7.92846615   0.769  -1.29963   3.64190   6.95229   2.04146   0.02401   8.836E-01   0.000E+00   1.164E-01
 431  7.93571123   0.769  -1.30202   3.64176   6.95310   2.04093   0.02674   9.010E-01   0.000E+00   9.860E-02
 432  7.94283743   0.769  -1.30439   3.64160   6.95380   2.04024   0.02728   9.178E-01   0.000E+00   8.179E-02
 433  7.94984859   0.769  -1.30672   3.64143   6.95442   2.03939   0.02910   9.361E-01   0.000E+00   6.419E-02
 434  7.95674835   0.769  -1.30900   3.64125   6.95494   2.03842   0.03088   9.503E-01   0.000E+00   4.946E-02
 435  7.96354021   0.769  -1.31124   3.64106   6.95537   2.03735   0.03231   9.643E-01   0.000E+00   3.550E-02
 436  7.97022748   0.769  -1.31341   3.64087   6.95574   2.03621   0.03341   9.781E-01   0.000E+00   2.187E-02
 437  7.97681335   0.769  -1.31551   3.64067   6.95604   2.03499   0.03446   9.903E-01   0.000E+00   9.825E-03
 438  7.98330083   0.769  -1.31753   3.64048   6.95627   2.03371   0.03568   1.002E+00   0.000E+00  -1.774E-03
 439  7.98969282   0.769  -1.31948   3.64028   6.95645   2.03239   0.03637   1.011E+00   0.000E+00  -1.138E-02
 440  7.99599211   0.769  -1.32134   3.64009   6.95656   2.03104   0.03757   1.021E+00   0.000E+00  -2.107E-02
 441  8.00220132   0.769  -1.32311   3.63989   6.95663   2.02967   0.03829   1.029E+00   0.000E+00  -2.909E-02
 442  8.00832301   0.769  -1.32478   3.63970   6.95666   2.02827   0.03914   1.036E+00   0.000E+00  -3.645E-02
 443  8.01435962   0.769  -1.32636   3.63951   6.95666   2.02687   0.04020   1.043E+00   0.000E+00  -4.336E-02
 444  8.02031346   0.769  -1.32785   3.63933   6.95661   2.02548   0.04020   1.048E+00   0.000E+00  -4.797E-02
 445  8.02618678   0.769  -1.32922   3.63916   6.95654   2.02409   0.04020   1.054E+00   0.000E+00  -5.414E-02
 446  8.03198173   0.769  -1.33048   3.63899   6.95643   2.02268   0.04125   1.059E+00   0.000E+00  -5.916E-02
 447  8.03770038   0.769  -1.33166   3.63883   6.95631   2.02130   0.04212   1.063E+00   0.000E+00  -6.290E-02
 448  8.04334470   0.769  -1.33275   3.63867   6.95616   2.01997   0.04212   1.064E+00   0.000E+00  -6.469E-02
 449  8.04891660   0.769  -1.33371   3.63853   6.95600   2.01865   0.04212   1.067E+00   0.000E+00  -6.736E-02
 450  8.05441792   0.769  -1.33463   3.63838   6.95583   2.01734   0.04212   1.071E+00   0.000E+00  -7.039E-02
 451  8.05985043   0.769  -1.33539   3.63825   6.95564   2.01606   0.04287   1.072E+00   0.000E+00  -7.222E-02
 452  8.06521582   0.769  -1.33612   3.63813   6.95545   2.01478   0.04375   1.074E+00   0.000E+00  -7.387E-02
 453  8.07051573   0.769  -1.33673   3.63802   6.95525   2.01359   0.04403   1.074E+00   0.000E+00  -7.410E-02
 454  8.07575175   0.769  -1.33727   3.63791   6.95503   2.01244   0.04403   1.073E+00   0.000E+00  -7.366E-02
 455  8.08092539   0.769  -1.33782   3.63780   6.95482   2.01130   0.04403   1.073E+00   0.000E+00  -7.322E-02
 456  8.08603812   0.769  -1.33816   3.63772   6.95460   2.01022   0.04403   1.073E+00   0.000E+00  -7.325E-02
 457  8.09109136   0.769  -1.33850   3.63763   6.95439   2.00915   0.04403   1.073E+00   0.000E+00  -7.331E-02
 458  8.09608648   0.769  -1.33883   3.63755   6.95417   2.00808   0.04403   1.073E+00   0.000E+00  -7.336E-02
 459  8.10102480   0.769  -1.33911   3.63747   6.95396   2.00704   0.04413   1.073E+00   0.000E+00  -7.325E-02
 460  8.10590760   0.769  -1.33924   3.63741   6.95375   2.00608   0.04448   1.073E+00   0.000E+00  -7.272E-02
 461  8.11073611   0.769  -1.33937   3.63735   6.95353   2.00512   0.04483   1.072E+00   0.000E+00  -7.219E-02
 462  8.11551153   0.769  -1.33951   3.63729   6.95332   2.00415   0.04518   1.072E+00   0.000E+00  -7.167E-02
 463  8.12023500   0.769  -1.33964   3.63723   6.95311   2.00319   0.04553   1.071E+00   0.000E+00  -7.114E-02
 464  8.12490766   0.768  -1.33977   3.63716   6.95290   2.00223   0.04587   1.071E+00   0.000E+00  -7.061E-02
 465  8.12953058   0.768  -1.33978   3.63712   6.95270   2.00142   0.04595   1.070E+00   0.000E+00  -6.954E-02
 466  8.13410480   0.768  -1.33975   3.63708   6.95252   2.00065   0.04595   1.069E+00   0.000E+00  -6.832E-02
 467  8.13863135   0.768  -1.33973   3.63704   6.95233   1.99988   0.04595   1.067E+00   0.000E+00  -6.710E-02
 468  8.14311121   0.768  -1.33970   3.63700   6.95214   1.99912   0.04595   1.066E+00   0.000E+00  -6.588E-02
 469  8.14754532   0.768  -1.33967   3.63696   6.95195   1.99835   0.04595   1.065E+00   0.000E+00  -6.465E-02
 470  8.15193463   0.768  -1.33965   3.63693   6.95176   1.99758   0.04595   1.063E+00   0.000E+00  -6.343E-02
 471  8.15628001   0.768  -1.33962   3.63689   6.95158   1.99681   0.04595   1.062E+00   0.000E+00  -6.221E-02
 472  8.16058235   0.768  -1.33959   3.63685   6.95139   1.99605   0.04595   1.061E+00   0.000E+00  -6.098E-02
 473  8.16484248   0.768  -1.33953   3.63682   6.95122   1.99535   0.04605   1.060E+00   0.000E+00  -6.001E-02
 474  8.16906123   0.768  -1.33942   3.63679   6.95106   1.99470   0.04624   1.059E+00   0.000E+00  -5.927E-02
 475  8.17323939   0.768  -1.33932   3.63677   6.95091   1.99406   0.04644   1.058E+00   0.000E+00  -5.853E-02
 476  8.17737774   0.768  -1.33922   3.63674   6.95075   1.99342   0.04663   1.057E+00   0.000E+00  -5.778E-02
 477  8.18147702   0.768  -1.33911   3.63672   6.95059   1.99278   0.04682   1.057E+00   0.000E+00  -5.704E-02
 478  8.18553798   0.768  -1.33901   3.63669   6.95044   1.99214   0.04702   1.056E+00   0.000E+00  -5.630E-02
 479  8.18956131   0.768  -1.33891   3.63667   6.95028   1.99150   0.04721   1.055E+00   0.000E+00  -5.556E-02
 480  8.19354772   0.768  -1.33880   3.63664   6.95012   1.99086   0.04740   1.055E+00   0.000E+00  -5.481E-02
 481  8.19749786   0.768  -1.33870   3.63662   6.94997   1.99022   0.04759   1.054E+00   0.000E+00  -5.407E-02
 482  8.20141240   0.768  -1.33860   3.63659   6.94981   1.98958   0.04779   1.053E+00   0.000E+00  -5.333E-02
 483  8.20529197   0.768  -1.33849   3.63657   6.94965   1.98894   0.04798   1.052E+00   0.000E+00  -5.259E-02
 484  8.20913719   0.768  -1.33839   3.63654   6.94950   1.98830   0.04817   1.052E+00   0.000E+00  -5.184E-02
 485  8.21294866   0.768  -1.33828   3.63652   6.94934   1.98768   0.04834   1.051E+00   0.000E+00  -5.111E-02
 486  8.21672698   0.768  -1.33817   3.63650   6.94923   1.98721   0.04834   1.050E+00   0.000E+00  -5.041E-02
 487  8.22047271   0.768  -1.33806   3.63649   6.94911   1.98674   0.04834   1.050E+00   0.000E+00  -4.971E-02
 488  8.22418640   0.768  -1.33795   3.63647   6.94899   1.98627   0.04834   1.049E+00   0.000E+00  -4.901E-02
 489  8.22786861   0.768  -1.33783   3.63646   6.94887   1.98580   0.04834   1.048E+00   0.000E+00  -4.831E-02
 490  8.23151986   0.768  -1.33772   3.63644   6.94876   1.98533   0.04834   1.047E+00   0.000E+00  -4.761E-02
 491  8.23514067   0.768  -1.33761   3.63643   6.94864   1.98486   0.04834   1.047E+00   0.000E+00  -4.691E-02
 492  8.23873154   0.768  -1.33749   3.63641   6.94852   1.98439   0.04834   1.046E+00   0.000E+00  -4.621E-02
 493  8.24229297   0.768  -1.33738   3.63640   6.94840   1.98392   0.04834   1.045E+00   0.000E+00  -4.551E-02
 494  8.24582543   0.768  -1.33727   3.63638   6.94828   1.98344   0.04834   1.045E+00   0.000E+00  -4.481E-02
 495  8.24932938   0.768  -1.33715   3.63637   6.94817   1.98297   0.04834   1.044E+00   0.000E+00  -4.411E-02
 496  8.25280529   0.768  -1.33704   3.63635   6.94805   1.98250   0.04834   1.043E+00   0.000E+00  -4.341E-02
 497  8.25625361   0.768  -1.33693   3.63634   6.94793   1.98203   0.04834   1.043E+00   0.000E+00  -4.271E-02
 498  8.25967476   0.768  -1.33682   3.63632   6.94781   1.98156   0.04834   1.042E+00   0.000E+00  -4.201E-02
 499  8.26306917   0.768  -1.33670   3.63631   6.94769   1.98109   0.04834   1.041E+00   0.000E+00  -4.131E-02
 500  8.26643725   0.768  -1.33659   3.63629   6.94758   1.98062   0.04834   1.040E+00   0.000E+00  -4.061E-02
 501  8.26977941   0.768  -1.33648   3.63628   6.94746   1.98015   0.04834   1.040E+00   0.000E+00  -3.991E-02
 502  8.27309606   0.768  -1.33636   3.63626   6.94734   1.97968   0.04834   1.039E+00   0.000E+00  -3.922E-02
 503  8.27638756   0.768  -1.33625   3.63625   6.94722   1.97921   0.04834   1.038E+00   0.000E+00  -3.852E-02
 504  8.27965431   0.768  -1.33615   3.63623   6.94712   1.97881   0.04841   1.038E+00   0.000E+00  -3.791E-02
 505  8.28289666   0.768  -1.33605   3.63622   6.94703   1.97845   0.04855   1.037E+00   0.000E+00  -3.738E-02
 506  8.28611499   0.768  -1.33595   3.63621   6.94694   1.97810   0.04868   1.037E+00   0.000E+00  -3.685E-02
 507  8.28930965   0.768  -1.33585   3.63620   6.94685   1.97774   0.04882   1.036E+00   0.000E+00  -3.632E-02
 508  8.29248097   0.768  -1.33575   3.63619   6.94676   1.97739   0.04895   1.036E+00   0.000E+00  -3.579E-02
 509  8.29562931   0.768  -1.33565   3.63618   6.94667   1.97703   0.04909   1.035E+00   0.000E+00  -3.525E-02
 510  8.29875499   0.768  -1.33555   3.63617   6.94658   1.97668   0.04922   1.035E+00   0.000E+00  -3.472E-02
 511  8.30185833   0.768  -1.33545   3.63616   6.94649   1.97632   0.04936   1.034E+00   0.000E+00  -3.419E-02
 512  8.30493965   0.768  -1.33535   3.63615   6.94640   1.97597   0.04949   1.034E+00   0.000E+00  -3.366E-02
 513  8.30799927   0.768  -1.33525   3.63614   6.94631   1.97561   0.04963   1.033E+00   0.000E+00  -3.313E-02
 514  8.31103748   0.768  -1.33515   3.63613   6.94622   1.97526   0.04976   1.033E+00   0.000E+00  -3.260E-02
 515  8.31405458   0.768  -1.33505   3.63612   6.94613   1.97490   0.04990   1.032E+00   0.000E+00  -3.207E-02
 516  8.31705087   0.768  -1.33495   3.63611   6.94604   1.97455   0.05003   1.032E+00   0.000E+00  -3.154E-02
 517  8.32002663   0.768  -1.33485   3.63610   6.94595   1.97420   0.05017   1.031E+00   0.000E+00  -3.101E-02
 518  8.32298214   0.768  -1.33475   3.63609   6.94586   1.97384   0.05030   1.031E+00   0.000E+00  -3.048E-02
 519  8.32591767   0.768  -1.33465   3.63608   6.94577   1.97349   0.05044   1.030E+00   0.000E+00  -2.995E-02
 520  8.32883349   0.768  -1.33456   3.63607   6.94567   1.97313   0.05057   1.030E+00   0.000E+00  -2.942E-02
 521  8.33172987   0.768  -1.33446   3.63606   6.94558   1.97278   0.05071   1.029E+00   0.000E+00  -2.889E-02
 522  8.33460705   0.768  -1.33437   3.63605   6.94552   1.97251   0.05073   1.029E+00   0.000E+00  -2.845E-02
 523  8.33746530   0.768  -1.33430   3.63605   6.94545   1.97226   0.05073   1.028E+00   0.000E+00  -2.804E-02
 524  8.34030486   0.768  -1.33422   3.63604   6.94539   1.97201   0.05073   1.028E+00   0.000E+00  -2.763E-02
 525  8.34312598   0.768  -1.33414   3.63604   6.94532   1.97176   0.05073   1.027E+00   0.000E+00  -2.722E-02
 526  8.34592889   0.768  -1.33406   3.63603   6.94526   1.97151   0.05073   1.027E+00   0.000E+00  -2.681E-02
 527  8.34871383   0.767  -1.33398   3.63602   6.94519   1.97126   0.05073   1.026E+00   0.000E+00  -2.640E-02
 528  8.35148102   0.767  -1.33390   3.63602   6.94513   1.97101   0.05073   1.026E+00   0.000E+00  -2.599E-02
 529  8.35423069   0.767  -1.33383   3.63601   6.94506   1.97076   0.05073   1.026E+00   0.000E+00  -2.557E-02
 530  8.35696306   0.767  -1.33375   3.63600   6.94500   1.97051   0.05073   1.025E+00   0.000E+00  -2.516E-02
 531  8.35967835   0.767  -1.33367   3.63600   6.94493   1.97026   0.05073   1.025E+00   0.000E+00  -2.475E-02
 532  8.36237676   0.767  -1.33359   3.63599   6.94487   1.97001   0.05073   1.024E+00   0.000E+00  -2.434E-02
 533  8.36505852   0.767  -1.33351   3.63598   6.94480   1.96976   0.05073   1.024E+00   0.000E+00  -2.393E-02
 534  8.36772381   0.767  -1.33343   3.63598   6.94474   1.96950   0.05073   1.023E+00   0.000E+00  -2.352E-02
 535  8.37037285   0.767  -1.33336   3.63597   6.94467   1.96925   0.05073   1.023E+00   0.000E+00  -2.310E-02
 536  8.37300583   0.767  -1.33328   3.63596   6.94461   1.96900   0.05073   1.022E+00   0.000E+00  -2.269E-02
 537  8.37562294   0.767  -1.33320   3.63596   6.94454   1.96875   0.05073   1.022E+00   0.000E+00  -2.228E-02
 538  8.37822438   0.767  -1.33312   3.63595   6.94448   1.96850   0.05073   1.021E+00   0.000E+00  -2.187E-02
 539  8.38081032   0.767  -1.33304   3.63595   6.94441   1.96825   0.05073   1.021E+00   0.000E+00  -2.146E-02
 540  8.38338096   0.767  -1.33296   3.63594   6.94435   1.96800   0.05073   1.021E+00   0.000E+00  -2.105E-02
 541  8.38593647   0.767  -1.33289   3.63593   6.94428   1.96775   0.05073   1.020E+00   0.000E+00  -2.063E-02
 542  8.38847703   0.767  -1.33282   3.63593   6.94423   1.96753   0.05073   1.020E+00   0.000E+00  -2.038E-02
 543  8.39100282   0.767  -1.33276   3.63592   6.94418   1.96733   0.05073   1.020E+00   0.000E+00  -2.021E-02
 544  8.39351400   0.767  -1.33270   3.63592   6.94413   1.96713   0.05073   1.020E+00   0.000E+00  -2.004E-02
 545  8.39601075   0.767  -1.33264   3.63591   6.94408   1.96693   0.05073   1.019E+00   0.000E+00  -1.987E-02
 546  8.39849322   0.767  -1.33259   3.63590   6.94403   1.96672   0.05073   1.019E+00   0.000E+00  -1.970E-02
 547  8.40096159   0.767  -1.33253   3.63590   6.94398   1.96652   0.05073   1.019E+00   0.000E+00  -1.952E-02
 548  8.40341600   0.767  -1.33247   3.63589   6.94393   1.96632   0.05073   1.019E+00   0.000E+00  -1.935E-02
 549  8.40585662   0.767  -1.33241   3.63589   6.94388   1.96612   0.05073   1.019E+00   0.000E+00  -1.918E-02
 550  8.40828360   0.767  -1.33235   3.63588   6.94384   1.96592   0.05073   1.019E+00   0.000E+00  -1.901E-02
 551  8.41069710   0.767  -1.33229   3.63588   6.94379   1.96571   0.05073   1.018E+00   0.000E+00  -1.883E-02
 552  8.41309726   0.767  -1.33223   3.63587   6.94374   1.96551   0.05073   1.018E+00   0.000E+00  -1.866E-02
 553  8.41548422   0.767  -1.33217   3.63587   6.94369   1.96531   0.05073   1.018E+00   0.000E+00  -1.849E-02
 554  8.41785814   0.767  -1.33212   3.63586   6.94364   1.96511   0.05073   1.018E+00   0.000E+00  -1.832E-02
 555  8.42021915   0.767  -1.33206   3.63586   6.94359   1.96490   0.05073   1.018E+00   0.000E+00  -1.815E-02
 556  8.42256739   0.767  -1.33200   3.63585   6.94354   1.96470   0.05073   1.018E+00   0.000E+00  -1.797E-02
 557  8.42490301   0.767  -1.33194   3.63584   6.94349   1.96450   0.05073   1.018E+00   0.000E+00  -1.780E-02
 558  8.42722613   0.767  -1.33188   3.63584   6.94344   1.96430   0.05073   1.017E+00   0.000E+00  -1.763E-02
 559  8.42953690   0.767  -1.33182   3.63583   6.94340   1.96409   0.05073   1.017E+00   0.000E+00  -1.746E-02
 560  8.43183543   0.767  -1.33176   3.63583   6.94335   1.96389   0.05073   1.017E+00   0.000E+00  -1.728E-02
 561  8.43412186   0.767  -1.33171   3.63582   6.94330   1.96369   0.05073   1.017E+00   0.000E+00  -1.711E-02
 562  8.43639632   0.767  -1.33165   3.63582   6.94325   1.96349   0.05073   1.017E+00   0.000E+00  -1.694E-02
 563  8.43865892   0.767  -1.33159   3.63581   6.94320   1.96329   0.05073   1.017E+00   0.000E+00  -1.677E-02
 564  8.44090980   0.767  -1.33153   3.63581   6.94315   1.96308   0.05073   1.016E+00   0.000E+00  -1.660E-02
 565  8.44314908   0.767  -1.33147   3.63580   6.94310   1.96288   0.05073   1.016E+00   0.000E+00  -1.642E-02
 566  8.44537687   0.767  -1.33141   3.63579   6.94305   1.96268   0.05073   1.016E+00   0.000E+00  -1.625E-02
 567  8.44759328   0.767  -1.33135   3.63579   6.94301   1.96248   0.05073   1.016E+00   0.000E+00  -1.608E-02
 568  8.44979845   0.767  -1.33131   3.63579   6.94297   1.96234   0.05073   1.016E+00   0.000E+00  -1.594E-02
 569  8.45199247   0.767  -1.33127   3.63578   6.94294   1.96220   0.05073   1.016E+00   0.000E+00  -1.579E-02
 570  8.45417547   0.767  -1.33123   3.63578   6.94290   1.96207   0.05073   1.016E+00   0.000E+00  -1.565E-02
 571  8.45634754   0.767  -1.33118   3.63577   6.94287   1.96193   0.05073   1.015E+00   0.000E+00  -1.550E-02
 572  8.45850881   0.767  -1.33114   3.63577   6.94283   1.96179   0.05073   1.015E+00   0.000E+00  -1.536E-02
 573  8.46065938   0.767  -1.33110   3.63577   6.94280   1.96165   0.05073   1.015E+00   0.000E+00  -1.521E-02
 574  8.46279935   0.767  -1.33105   3.63576   6.94276   1.96151   0.05073   1.015E+00   0.000E+00  -1.507E-02
 575  8.46492882   0.767  -1.33101   3.63576   6.94273   1.96137   0.05073   1.015E+00   0.000E+00  -1.493E-02
 576  8.46704791   0.767  -1.33097   3.63575   6.94269   1.96123   0.05073   1.015E+00   0.000E+00  -1.478E-02
 577  8.46915670   0.767  -1.33092   3.63575   6.94266   1.96109   0.05073   1.015E+00   0.000E+00  -1.464E-02
 578  8.47125531   0.767  -1.33088   3.63575   6.94263   1.96095   0.05073   1.014E+00   0.000E+00  -1.449E-02
 579  8.47334382   0.767  -1.33084   3.63574   6.94259   1.96081   0.05073   1.014E+00   0.000E+00  -1.435E-02
 580  8.47542234   0.767  -1.33079   3.63574   6.94256   1.96067   0.05073   1.014E+00   0.000E+00  -1.420E-02
 581  8.47749096   0.767  -1.33075   3.63574   6.94252   1.96053   0.05073   1.014E+00   0.000E+00  -1.406E-02
 582  8.47954977   0.767  -1.33071   3.63573   6.94249   1.96039   0.05073   1.014E+00   0.000E+00  -1.391E-02
 583  8.48159887   0.767  -1.33067   3.63573   6.94245   1.96025   0.05073   1.014E+00   0.000E+00  -1.377E-02
 584  8.48363834   0.767  -1.33062   3.63572   6.94242   1.96011   0.05073   1.013E+00   0.000E+00  -1.362E-02
 585  8.48566828   0.767  -1.33058   3.63572   6.94238   1.95997   0.05073   1.013E+00   0.000E+00  -1.348E-02
 586  8.48768878   0.767  -1.33054   3.63572   6.94235   1.95984   0.05073   1.013E+00   0.000E+00  -1.333E-02
 587  8.48969992   0.767  -1.33049   3.63571   6.94231   1.95970   0.05073   1.013E+00   0.000E+00  -1.319E-02
 588  8.49170179   0.767  -1.33045   3.63571   6.94228   1.95956   0.05073   1.013E+00   0.000E+00  -1.304E-02
 589  8.49369448   0.767  -1.33041   3.63571   6.94225   1.95942   0.05073   1.013E+00   0.000E+00  -1.290E-02
 590  8.49567806   0.767  -1.33036   3.63570   6.94221   1.95928   0.05073   1.013E+00   0.000E+00  -1.276E-02
 591  8.49765263   0.767  -1.33032   3.63570   6.94218   1.95914   0.05073   1.012E+00   0.000E+00  -1.261E-02
 592  8.49961826   0.767  -1.33028   3.63569   6.94214   1.95900   0.05073   1.012E+00   0.000E+00  -1.247E-02
 593  8.50157503   0.767  -1.33023   3.63569   6.94211   1.95886   0.05073   1.012E+00   0.000E+00  -1.232E-02
 594  8.50352302   0.767  -1.33019   3.63569   6.94207   1.95872   0.05073   1.012E+00   0.000E+00  -1.218E-02
 595  8.50546232   0.767  -1.33015   3.63568   6.94204   1.95858   0.05073   1.012E+00   0.000E+00  -1.203E-02
 596  8.50739300   0.767  -1.33010   3.63568   6.94200   1.95844   0.05073   1.012E+00   0.000E+00  -1.189E-02
 597  8.50931513   0.767  -1.33006   3.63567   6.94197   1.95830   0.05073   1.012E+00   0.000E+00  -1.174E-02
 598  8.51122879   0.767  -1.33002   3.63567   6.94193   1.95816   0.05073   1.011E+00   0.000E+00  -1.160E-02
 599  8.51313405   0.767  -1.32998   3.63567   6.94190   1.95802   0.05073   1.011E+00   0.000E+00  -1.145E-02
 600  8.51503100   0.767  -1.32993   3.63566   6.94187   1.95788   0.05073   1.011E+00   0.000E+00  -1.131E-02
 601  8.51691969   0.766  -1.32989   3.63566   6.94183   1.95776   0.05073   1.011E+00   0.000E+00  -1.118E-02
 602  8.51880020   0.766  -1.32986   3.63566   6.94181   1.95767   0.05073   1.011E+00   0.000E+00  -1.109E-02
 603  8.52067261   0.766  -1.32983   3.63566   6.94179   1.95759   0.05073   1.011E+00   0.000E+00  -1.100E-02
 604  8.52253698   0.766  -1.32980   3.63565   6.94177   1.95750   0.05073   1.011E+00   0.000E+00  -1.092E-02
 605  8.52439338   0.766  -1.32977   3.63565   6.94175   1.95741   0.05073   1.011E+00   0.000E+00  -1.083E-02
 606  8.52624188   0.766  -1.32974   3.63565   6.94173   1.95733   0.05073   1.011E+00   0.000E+00  -1.074E-02
 607  8.52808255   0.766  -1.32971   3.63565   6.94171   1.95724   0.05073   1.010E+00   0.000E+00  -1.066E-02
 608  8.52991544   0.766  -1.32968   3.63564   6.94169   1.95715   0.05073   1.010E+00   0.000E+00  -1.057E-02
 609  8.53174064   0.766  -1.32965   3.63564   6.94167   1.95707   0.05073   1.010E+00   0.000E+00  -1.048E-02
 610  8.53355819   0.766  -1.32962   3.63564   6.94164   1.95698   0.05073   1.010E+00   0.000E+00  -1.039E-02
 611  8.53536817   0.766  -1.32959   3.63564   6.94162   1.95689   0.05073   1.010E+00   0.000E+00  -1.031E-02
 612  8.53717064   0.766  -1.32956   3.63564   6.94160   1.95681   0.05073   1.010E+00   0.000E+00  -1.022E-02
 613  8.53896566   0.766  -1.32953   3.63563   6.94158   1.95672   0.05073   1.010E+00   0.000E+00  -1.013E-02
 614  8.54075329   0.766  -1.32950   3.63563   6.94156   1.95663   0.05073   1.010E+00   0.000E+00  -1.005E-02
 615  8.54253359   0.766  -1.32946   3.63563   6.94154   1.95655   0.05073   1.010E+00   0.000E+00  -9.958E-03
 616  8.54430662   0.766  -1.32943   3.63563   6.94152   1.95646   0.05073   1.010E+00   0.000E+00  -9.871E-03
 617  8.54607245   0.766  -1.32940   3.63563   6.94150   1.95637   0.05073   1.010E+00   0.000E+00  -9.784E-03
 618  8.54783112   0.766  -1.32937   3.63562   6.94148   1.95629   0.05073   1.010E+00   0.000E+00  -9.697E-03
 619  8.54958270   0.766  -1.32934   3.63562   6.94146   1.95620   0.05073   1.009E+00   0.000E+00  -9.609E-03
 620  8.55132724   0.766  -1.32931   3.63562   6.94143   1.95611   0.05073   1.009E+00   0.000E+00  -9.522E-03
 621  8.55306481   0.766  -1.32928   3.63562   6.94141   1.95603   0.05073   1.009E+00   0.000E+00  -9.435E-03
 622  8.55479545   0.766  -1.32925   3.63561   6.94139   1.95594   0.05073   1.009E+00   0.000E+00  -9.348E-03
 623  8.55651922   0.766  -1.32922   3.63561   6.94137   1.95586   0.05073   1.009E+00   0.000E+00  -9.261E-03
 624  8.55823618   0.766  -1.32919   3.63561   6.94135   1.95577   0.05073   1.009E+00   0.000E+00  -9.174E-03
 625  8.55994637   0.766  -1.32916   3.63561   6.94133   1.95568   0.05073   1.009E+00   0.000E+00  -9.087E-03
 626  8.56164986   0.766  -1.32913   3.63561   6.94131   1.95560   0.05073   1.009E+00   0.000E+00  -8.999E-03
 627  8.56334669   0.766  -1.32910   3.63560   6.94129   1.95551   0.05073   1.009E+00   0.000E+00  -8.912E-03
 628  8.56503692   0.766  -1.32907   3.63560   6.94127   1.95542   0.05073   1.009E+00   0.000E+00  -8.825E-03
 629  8.56672059   0.766  -1.32904   3.63560   6.94124   1.95534   0.05073   1.009E+00   0.000E+00  -8.738E-03
 630  8.56839777   0.766  -1.32901   3.63560   6.94122   1.95525   0.05073   1.008E+00   0.000E+00  -8.651E-03
 631  8.57006849   0.766  -1.32898   3.63559   6.94120   1.95516   0.05073   1.008E+00   0.000E+00  -8.564E-03
 632  8.57173281   0.766  -1.32895   3.63559   6.94118   1.95508   0.05073   1.008E+00   0.000E+00  -8.477E-03
 633  8.57339077   0.766  -1.32891   3.63559   6.94116   1.95499   0.05073   1.008E+00   0.000E+00  -8.389E-03
 634  8.57504243   0.766  -1.32888   3.63559   6.94114   1.95490   0.05073   1.008E+00   0.000E+00  -8.302E-03
 635  8.57668783   0.766  -1.32885   3.63559   6.94112   1.95482   0.05073   1.008E+00   0.000E+00  -8.215E-03
 636  8.57832702   0.766  -1.32882   3.63558   6.94110   1.95473   0.05073   1.008E+00   0.000E+00  -8.128E-03
 637  8.57996005   0.766  -1.32879   3.63558   6.94108   1.95464   0.05073   1.008E+00   0.000E+00  -8.041E-03
 638  8.58158696   0.766  -1.32876   3.63558   6.94105   1.95456   0.05073   1.008E+00   0.000E+00  -7.954E-03
 639  8.58320780   0.766  -1.32873   3.63558   6.94103   1.95447   0.05073   1.008E+00   0.000E+00  -7.867E-03
 640  8.58482261   0.766  -1.32870   3.63558   6.94101   1.95438   0.05073   1.008E+00   0.000E+00  -7.779E-03
 641  8.58643144   0.766  -1.32867   3.63557   6.94099   1.95430   0.05073   1.008E+00   0.000E+00  -7.692E-03
 642  8.58803433   0.766  -1.32864   3.63557   6.94097   1.95421   0.05073   1.007E+00   0.000E+00  -7.605E-03
 643  8.58963133   0.766  -1.32861   3.63557   6.94095   1.95413   0.05073   1.007E+00   0.000E+00  -7.518E-03
 644  8.59122247   0.766  -1.32858   3.63557   6.94093   1.95404   0.05073   1.007E+00   0.000E+00  -7.431E-03
 645  8.59280781   0.766  -1.32855   3.63556   6.94091   1.95395   0.05073   1.007E+00   0.000E+00  -7.344E-03
 646  8.59438738   0.766  -1.32852   3.63556   6.94089   1.95387   0.05073   1.007E+00   0.000E+00  -7.257E-03
 647  8.59596123   0.766  -1.32849   3.63556   6.94086   1.95378   0.05073   1.007E+00   0.000E+00  -7.169E-03
 648  8.59752940   0.766  -1.32846   3.63556   6.94085   1.95373   0.05073   1.007E+00   0.000E+00  -7.108E-03
 649  8.59909192   0.766  -1.32844   3.63556   6.94084   1.95369   0.05073   1.007E+00   0.000E+00  -7.054E-03
 650  8.60064884   0.766  -1.32842   3.63556   6.94083   1.95365   0.05073   1.007E+00   0.000E+00  -7.000E-03
 651  8.60220020   0.766  -1.32840   3.63556   6.94082   1.95361   0.05073   1.007E+00   0.000E+00  -6.946E-03
 652  8.60374604   0.766  -1.32838   3.63556   6.94081   1.95357   0.05073   1.007E+00   0.000E+00  -6.892E-03
 653  8.60528639   0.766  -1.32836   3.63556   6.94080   1.95353   0.05073   1.007E+00   0.000E+00  -6.838E-03
 654  8.60682130   0.766  -1.32834   3.63556   6.94079   1.95349   0.05073   1.007E+00   0.000E+00  -6.784E-03
 655  8.60835081   0.766  -1.32832   3.63556   6.94078   1.95345   0.05073   1.007E+00   0.000E+00  -6.730E-03
 656  8.60987495   0.766  -1.32830   3.63555   6.94077   1.95341   0.05073   1.007E+00   0.000E+00  -6.676E-03
 657  8.61139375   0.766  -1.32828   3.63555   6.94076   1.95337   0.05073   1.007E+00   0.000E+00  -6.622E-03
 658  8.61290727   0.766  -1.32826   3.63555   6.94075   1.95333   0.05073   1.007E+00   0.000E+00  -6.568E-03
 659  8.61441553   0.766  -1.32824   3.63555   6.94074   1.95329   0.05073   1.006E+00   0.000E+00  -6.514E-03
 660  8.61591856   0.766  -1.32822   3.63555   6.94073   1.95325   0.05073   1.006E+00   0.000E+00  -6.460E-03
 661  8.61741642   0.766  -1.32820   3.63555   6.94072   1.95321   0.05073   1.006E+00   0.000E+00  -6.406E-03
 662  8.61890912   0.766  -1.32818   3.63555   6.94071   1.95317   0.05073   1.006E+00   0.000E+00  -6.352E-03
 663  8.62039672   0.766  -1.32816   3.63555   6.94070   1.95313   0.05073   1.006E+00   0.000E+00  -6.298E-03
 664  8.62187923   0.766  -1.32814   3.63555   6.94069   1.95310   0.05073   1.006E+00   0.000E+00  -6.244E-03
 665  8.62335670   0.766  -1.32812   3.63555   6.94068   1.95306   0.05073   1.006E+00   0.000E+00  -6.190E-03
 666  8.62482917   0.766  -1.32810   3.63555   6.94067   1.95302   0.05073   1.006E+00   0.000E+00  -6.136E-03
 667  8.62629665   0.766  -1.32808   3.63555   6.94066   1.95298   0.05073   1.006E+00   0.000E+00  -6.082E-03
 668  8.62775920   0.766  -1.32806   3.63555   6.94065   1.95294   0.05073   1.006E+00   0.000E+00  -6.028E-03
 669  8.62921683   0.766  -1.32804   3.63555   6.94064   1.95290   0.05073   1.006E+00   0.000E+00  -5.974E-03
 670  8.63066959   0.766  -1.32802   3.63555   6.94063   1.95286   0.05073   1.006E+00   0.000E+00  -5.920E-03
 671  8.63211751   0.766  -1.32800   3.63555   6.94062   1.95282   0.05073   1.006E+00   0.000E+00  -5.866E-03
 672  8.63356061   0.766  -1.32798   3.63554   6.94061   1.95278   0.05073   1.006E+00   0.000E+00  -5.812E-03
 673  8.63499894   0.766  -1.32796   3.63554   6.94060   1.95274   0.05073   1.006E+00   0.000E+00  -5.758E-03
 674  8.63643252   0.766  -1.32794   3.63554   6.94059   1.95270   0.05073   1.006E+00   0.000E+00  -5.704E-03
 675  8.63786138   0.766  -1.32792   3.63554   6.94058   1.95266   0.05073   1.006E+00   0.000E+00  -5.650E-03
 676  8.63928555   0.766  -1.32790   3.63554   6.94057   1.95262   0.05073   1.006E+00   0.000E+00  -5.596E-03
 677  8.64070508   0.766  -1.32788   3.63554   6.94056   1.95258   0.05073   1.006E+00   0.000E+00  -5.542E-03
 678  8.64211997   0.766  -1.32786   3.63554   6.94055   1.95254   0.05073   1.006E+00   0.000E+00  -5.488E-03
 679  8.64353027   0.766  -1.32784   3.63554   6.94054   1.95250   0.05073   1.006E+00   0.000E+00  -5.434E-03
 680  8.64493601   0.765  -1.32782   3.63554   6.94053   1.95246   0.05073   1.005E+00   0.000E+00  -5.380E-03
 681  8.64633721   0.765  -1.32780   3.63554   6.94052   1.95242   0.05073   1.005E+00   0.000E+00  -5.326E-03
 682  8.64773391   0.765  -1.32778   3.63554   6.94051   1.95238   0.05073   1.005E+00   0.000E+00  -5.272E-03
 683  8.64912612   0.765  -1.32776   3.63554   6.94050   1.95234   0.05073   1.005E+00   0.000E+00  -5.218E-03
 684  8.65051389   0.765  -1.32774   3.63554   6.94049   1.95230   0.05073   1.005E+00   0.000E+00  -5.164E-03
 685  8.65189724   0.765  -1.32772   3.63554   6.94048   1.95226   0.05073   1.005E+00   0.000E+00  -5.110E-03
 686  8.65327620   0.765  -1.32770   3.63554   6.94047   1.95222   0.05073   1.005E+00   0.000E+00  -5.056E-03
 687  8.65465079   0.765  -1.32768   3.63554   6.94046   1.95218   0.05073   1.005E+00   0.000E+00  -5.002E-03
 688  8.65602104   0.765  -1.32766   3.63554   6.94045   1.95214   0.05073   1.005E+00   0.000E+00  -4.948E-03
 689  8.65738699   0.765  -1.32764   3.63553   6.94044   1.95210   0.05073   1.005E+00   0.000E+00  -4.894E-03
 690  8.65874865   0.765  -1.32762   3.63553   6.94043   1.95207   0.05073   1.005E+00   0.000E+00  -4.840E-03
 691  8.66010605   0.765  -1.32760   3.63553   6.94042   1.95203   0.05073   1.005E+00   0.000E+00  -4.786E-03
 692  8.66145923   0.765  -1.32758   3.63553   6.94041   1.95199   0.05073   1.005E+00   0.000E+00  -4.732E-03
 693  8.66280820   0.765  -1.32756   3.63553   6.94040   1.95195   0.05073   1.005E+00   0.000E+00  -4.678E-03
 694  8.66415300   0.765  -1.32754   3.63553   6.94039   1.95191   0.05073   1.005E+00   0.000E+00  -4.624E-03
 695  8.66549364   0.765  -1.32752   3.63553   6.94038   1.95187   0.05073   1.005E+00   0.000E+00  -4.570E-03
 696  8.66683016   0.765  -1.32750   3.63553   6.94037   1.95183   0.05073   1.005E+00   0.000E+00  -4.516E-03
 697  8.66816258   0.765  -1.32747   3.63553   6.94036   1.95179   0.05073   1.005E+00   0.000E+00  -4.462E-03
 698  8.66949093   0.765  -1.32745   3.63553   6.94035   1.95175   0.05073   1.005E+00   0.000E+00  -4.408E-03
 699  8.67081522   0.765  -1.32743   3.63553   6.94034   1.95171   0.05073   1.005E+00   0.000E+00  -4.354E-03
 700  8.67213549   0.765  -1.32741   3.63553   6.94033   1.95167   0.05073   1.005E+00   0.000E+00  -4.300E-03
 701  8.67345175   0.765  -1.32739   3.63553   6.94032   1.95163   0.05073   1.005E+00   0.000E+00  -4.246E-03
 702  8.67476404   0.765  -1.32737   3.63553   6.94031   1.95159   0.05073   1.004E+00   0.000E+00  -4.192E-03
 703  8.67607237   0.765  -1.32735   3.63553   6.94030   1.95155   0.05073   1.004E+00   0.000E+00  -4.138E-03
 704  8.67737678   0.765  -1.32733   3.63553   6.94029   1.95151   0.05073   1.004E+00   0.000E+00  -4.084E-03
 705  8.67867728   0.765  -1.32731   3.63552   6.94028   1.95147   0.05073   1.004E+00   0.000E+00  -4.030E-03
 706  8.67997389   0.765  -1.32729   3.63552   6.94027   1.95143   0.05073   1.004E+00   0.000E+00  -3.976E-03
 707  8.68126665   0.765  -1.32727   3.63552   6.94026   1.95139   0.05073   1.004E+00   0.000E+00  -3.922E-03
 708  8.68255557   0.765  -1.32725   3.63552   6.94025   1.95135   0.05073   1.004E+00   0.000E+00  -3.868E-03
 709  8.68384068   0.765  -1.32723   3.63552   6.94024   1.95131   0.05073   1.004E+00   0.000E+00  -3.814E-03
 710  8.68512199   0.765  -1.32721   3.63552   6.94023   1.95127   0.05073   1.004E+00   0.000E+00  -3.760E-03
 711  8.68639954   0.765  -1.32719   3.63552   6.94022   1.95123   0.05073   1.004E+00   0.000E+00  -3.706E-03
 712  8.68767334   0.765  -1.32717   3.63552   6.94021   1.95119   0.05073   1.004E+00   0.000E+00  -3.652E-03
 713  8.68894341   0.765  -1.32715   3.63552   6.94020   1.95116   0.05072   1.004E+00   0.000E+00  -3.612E-03
 714  8.69020978   0.765  -1.32714   3.63552   6.94019   1.95115   0.05070   1.004E+00   0.000E+00  -3.593E-03
 715  8.69147247   0.765  -1.32713   3.63552   6.94019   1.95114   0.05067   1.004E+00   0.000E+00  -3.574E-03
 716  8.69273149   0.765  -1.32711   3.63552   6.94019   1.95112   0.05065   1.004E+00   0.000E+00  -3.554E-03
 717  8.69398688   0.765  -1.32710   3.63552   6.94018   1.95111   0.05062   1.004E+00   0.000E+00  -3.535E-03
 718  8.69523865   0.765  -1.32709   3.63552   6.94018   1.95109   0.05060   1.004E+00   0.000E+00  -3.516E-03
 719  8.69648682   0.765  -1.32707   3.63552   6.94018   1.95108   0.05057   1.004E+00   0.000E+00  -3.496E-03
 720  8.69773142   0.765  -1.32706   3.63552   6.94017   1.95106   0.05055   1.004E+00   0.000E+00  -3.477E-03
 721  8.69897246   0.765  -1.32705   3.63552   6.94017   1.95105   0.05053   1.004E+00   0.000E+00  -3.458E-03
 722  8.70020996   0.765  -1.32703   3.63552   6.94017   1.95103   0.05050   1.004E+00   0.000E+00  -3.439E-03
 723  8.70144394   0.765  -1.32702   3.63552   6.94016   1.95102   0.05048   1.004E+00   0.000E+00  -3.419E-03
 724  8.70267443   0.765  -1.32700   3.63552   6.94016   1.95100   0.05045   1.004E+00   0.000E+00  -3.400E-03
 725  8.70390145   0.765  -1.32699   3.63552   6.94015   1.95099   0.05043   1.004E+00   0.000E+00  -3.381E-03
 726  8.70512500   0.765  -1.32698   3.63552   6.94015   1.95098   0.05040   1.004E+00   0.000E+00  -3.362E-03
 727  8.70634512   0.765  -1.32696   3.63552   6.94015   1.95096   0.05038   1.004E+00   0.000E+00  -3.342E-03
 728  8.70756182   0.765  -1.32695   3.63552   6.94014   1.95095   0.05035   1.004E+00   0.000E+00  -3.323E-03
 729  8.70877512   0.765  -1.32694   3.63552   6.94014   1.95093   0.05033   1.004E+00   0.000E+00  -3.304E-03
 730  8.70998504   0.765  -1.32692   3.63552   6.94014   1.95092   0.05031   1.004E+00   0.000E+00  -3.284E-03
 731  8.71119160   0.765  -1.32691   3.63552   6.94013   1.95090   0.05028   1.004E+00   0.000E+00  -3.265E-03
 732  8.71239482   0.765  -1.32689   3.63552   6.94013   1.95089   0.05026   1.004E+00   0.000E+00  -3.246E-03
 733  8.71359471   0.765  -1.32688   3.63552   6.94013   1.95087   0.05023   1.004E+00   0.000E+00  -3.227E-03
 734  8.71479130   0.765  -1.32687   3.63552   6.94012   1.95086   0.05021   1.004E+00   0.000E+00  -3.207E-03
 735  8.71598460   0.765  -1.32685   3.63552   6.94012   1.95085   0.05018   1.004E+00   0.000E+00  -3.188E-03
 736  8.71717463   0.765  -1.32684   3.63552   6.94011   1.95083   0.05016   1.004E+00   0.000E+00  -3.169E-03
 737  8.71836140   0.765  -1.32683   3.63552   6.94011   1.95082   0.05014   1.004E+00   0.000E+00  -3.150E-03
 738  8.71954495   0.765  -1.32681   3.63552   6.94011   1.95080   0.05011   1.003E+00   0.000E+00  -3.130E-03
 739  8.72072527   0.765  -1.32680   3.63552   6.94010   1.95079   0.05009   1.003E+00   0.000E+00  -3.111E-03
 740  8.72190240   0.765  -1.32679   3.63552   6.94010   1.95077   0.05006   1.003E+00   0.000E+00  -3.092E-03
 741  8.72307634   0.765  -1.32677   3.63552   6.94010   1.95076   0.05004   1.003E+00   0.000E+00  -3.072E-03
 742  8.72424713   0.765  -1.32676   3.63552   6.94009   1.95074   0.05001   1.003E+00   0.000E+00  -3.053E-03
 743  8.72541476   0.765  -1.32674   3.63552   6.94009   1.95073   0.04999   1.003E+00   0.000E+00  -3.034E-03
 744  8.72657926   0.765  -1.32673   3.63552   6.94008   1.95072   0.04996   1.003E+00   0.000E+00  -3.015E-03
 745  8.72774065   0.765  -1.32672   3.63552   6.94008   1.95070   0.04994   1.003E+00   0.000E+00  -2.995E-03
 746  8.72889894   0.765  -1.32670   3.63552   6.94008   1.95069   0.04992   1.003E+00   0.000E+00  -2.976E-03
 747  8.73005415   0.765  -1.32669   3.63552   6.94007   1.95067   0.04989   1.003E+00   0.000E+00  -2.957E-03
 748  8.73120629   0.765  -1.32668   3.63552   6.94007   1.95066   0.04987   1.003E+00   0.000E+00  -2.938E-03
 749  8.73235539   0.765  -1.32666   3.63552   6.94007   1.95064   0.04984   1.003E+00   0.000E+00  -2.918E-03
 750  8.73350145   0.765  -1.32665   3.63552   6.94006   1.95063   0.04982   1.003E+00   0.000E+00  -2.899E-03
 751  8.73464450   0.765  -1.32664   3.63552   6.94006   1.95061   0.04979   1.003E+00   0.000E+00  -2.880E-03
 752  8.73578454   0.765  -1.32662   3.63552   6.94006   1.95060   0.04977   1.003E+00   0.000E+00  -2.860E-03
 753  8.73692161   0.765  -1.32661   3.63552   6.94005   1.95058   0.04975   1.003E+00   0.000E+00  -2.841E-03
 754  8.73805570   0.765  -1.32659   3.63552   6.94005   1.95057   0.04972   1.003E+00   0.000E+00  -2.822E-03
 755  8.73918684   0.765  -1.32658   3.63552   6.94004   1.95056   0.04970   1.003E+00   0.000E+00  -2.803E-03
 756  8.74031504   0.765  -1.32657   3.63552   6.94004   1.95054   0.04967   1.003E+00   0.000E+00  -2.783E-03
 757  8.74144031   0.765  -1.32655   3.63552   6.94004   1.95053   0.04965   1.003E+00   0.000E+00  -2.764E-03
 758  8.74256268   0.765  -1.32654   3.63552   6.94003   1.95051   0.04962   1.003E+00   0.000E+00  -2.745E-03
 759  8.74368216   0.765  -1.32653   3.63552   6.94003   1.95050   0.04960   1.003E+00   0.000E+00  -2.725E-03
 760  8.74479876   0.765  -1.32651   3.63552   6.94003   1.95048   0.04957   1.003E+00   0.000E+00  -2.706E-03
 761  8.74591249   0.765  -1.32650   3.63552   6.94002   1.95047   0.04955   1.003E+00   0.000E+00  -2.687E-03
 762  8.74702338   0.765  -1.32648   3.63551   6.94002   1.95045   0.04953   1.003E+00   0.000E+00  -2.668E-03
 763  8.74813143   0.764  -1.32647   3.63551   6.94001   1.95044   0.04950   1.003E+00   0.000E+00  -2.648E-03
 764  8.74923666   0.764  -1.32646   3.63551   6.94001   1.95043   0.04948   1.003E+00   0.000E+00  -2.629E-03
 765  8.75033908   0.764  -1.32644   3.63551   6.94001   1.95041   0.04945   1.003E+00   0.000E+00  -2.610E-03
 766  8.75143872   0.764  -1.32643   3.63551   6.94000   1.95040   0.04943   1.003E+00   0.000E+00  -2.591E-03
 767  8.75253557   0.764  -1.32642   3.63551   6.94000   1.95038   0.04940   1.003E+00   0.000E+00  -2.571E-03
 768  8.75362967   0.764  -1.32640   3.63551   6.94000   1.95037   0.04938   1.003E+00   0.000E+00  -2.552E-03
 769  8.75472101   0.764  -1.32639   3.63551   6.93999   1.95035   0.04936   1.003E+00   0.000E+00  -2.533E-03
 770  8.75580962   0.764  -1.32638   3.63551   6.93999   1.95034   0.04933   1.003E+00   0.000E+00  -2.513E-03
 771  8.75689551   0.764  -1.32636   3.63551   6.93999   1.95032   0.04931   1.003E+00   0.000E+00  -2.494E-03
 772  8.75797869   0.764  -1.32635   3.63551   6.93998   1.95031   0.04928   1.003E+00   0.000E+00  -2.475E-03
 773  8.75905917   0.764  -1.32633   3.63551   6.93998   1.95030   0.04926   1.003E+00   0.000E+00  -2.456E-03
 774  8.76013697   0.764  -1.32632   3.63551   6.93997   1.95028   0.04923   1.003E+00   0.000E+00  -2.436E-03
 775  8.76121211   0.764  -1.32631   3.63551   6.93997   1.95027   0.04921   1.003E+00   0.000E+00  -2.417E-03
 776  8.76228459   0.764  -1.32629   3.63551   6.93997   1.95025   0.04918   1.003E+00   0.000E+00  -2.398E-03
 777  8.76335442   0.764  -1.32628   3.63551   6.93996   1.95024   0.04916   1.003E+00   0.000E+00  -2.379E-03
 778  8.76442163   0.764  -1.32627   3.63551   6.93996   1.95022   0.04914   1.003E+00   0.000E+00  -2.359E-03
 779  8.76548622   0.764  -1.32625   3.63551   6.93996   1.95021   0.04911   1.003E+00   0.000E+00  -2.340E-03
 780  8.76654821   0.764  -1.32624   3.63551   6.93995   1.95019   0.04909   1.003E+00   0.000E+00  -2.321E-03
 781  8.76760761   0.764  -1.32623   3.63551   6.93995   1.95018   0.04906   1.003E+00   0.000E+00  -2.301E-03
 782  8.76866443   0.764  -1.32621   3.63551   6.93995   1.95016   0.04904   1.003E+00   0.000E+00  -2.282E-03
 783  8.76971869   0.764  -1.32620   3.63551   6.93994   1.95015   0.04901   1.003E+00   0.000E+00  -2.263E-03
 784  8.77077039   0.764  -1.32618   3.63551   6.93994   1.95014   0.04899   1.003E+00   0.000E+00  -2.244E-03
 785  8.77181955   0.764  -1.32617   3.63551   6.93993   1.95012   0.04897   1.003E+00   0.000E+00  -2.224E-03
 786  8.77286618   0.764  -1.32616   3.63551   6.93993   1.95011   0.04894   1.003E+00   0.000E+00  -2.205E-03
 787  8.77391030   0.764  -1.32614   3.63551   6.93993   1.95009   0.04892   1.002E+00   0.000E+00  -2.186E-03
 788  8.77495191   0.764  -1.32613   3.63551   6.93992   1.95008   0.04889   1.002E+00   0.000E+00  -2.167E-03
 789  8.77599103   0.764  -1.32612   3.63551   6.93992   1.95006   0.04887   1.002E+00   0.000E+00  -2.147E-03
 790  8.77702767   0.764  -1.32610   3.63551   6.93992   1.95005   0.04884   1.002E+00   0.000E+00  -2.128E-03
 791  8.77806184   0.764  -1.32609   3.63551   6.93991   1.95003   0.04882   1.002E+00   0.000E+00  -2.109E-03
 792  8.77909355   0.764  -1.32607   3.63551   6.93991   1.95002   0.04879   1.002E+00   0.000E+00  -2.089E-03
 793  8.78012282   0.764  -1.32606   3.63551   6.93990   1.95001   0.04877   1.002E+00   0.000E+00  -2.070E-03
 794  8.78114966   0.764  -1.32605   3.63551   6.93990   1.94999   0.04875   1.002E+00   0.000E+00  -2.051E-03
 795  8.78217407   0.764  -1.32603   3.63551   6.93990   1.94998   0.04872   1.002E+00   0.000E+00  -2.032E-03
 796  8.78319608   0.764  -1.32602   3.63551   6.93989   1.94996   0.04870   1.002E+00   0.000E+00  -2.012E-03
 797  8.78421568   0.764  -1.32601   3.63551   6.93989   1.94995   0.04867   1.002E+00   0.000E+00  -1.993E-03
 798  8.78523289   0.764  -1.32599   3.63551   6.93989   1.94993   0.04865   1.002E+00   0.000E+00  -1.974E-03
 799  8.78624773   0.764  -1.32598   3.63551   6.93988   1.94992   0.04862   1.002E+00   0.000E+00  -1.954E-03
 800  8.78726021   0.764  -1.32597   3.63551   6.93988   1.94990   0.04860   1.002E+00   0.000E+00  -1.935E-03
 801  8.78827032   0.764  -1.32595   3.63551   6.93988   1.94989   0.04858   1.002E+00   0.000E+00  -1.916E-03
 802  8.78927810   0.764  -1.32594   3.63551   6.93987   1.94988   0.04855   1.002E+00   0.000E+00  -1.897E-03
 803  8.79028354   0.764  -1.32592   3.63551   6.93987   1.94986   0.04853   1.002E+00   0.000E+00  -1.877E-03
 804  8.79128665   0.764  -1.32591   3.63551   6.93986   1.94985   0.04850   1.002E+00   0.000E+00  -1.858E-03
 805  8.79228746   0.764  -1.32590   3.63551   6.93986   1.94983   0.04848   1.002E+00   0.000E+00  -1.839E-03
 806  8.79328597   0.764  -1.32588   3.63551   6.93986   1.94982   0.04845   1.002E+00   0.000E+00  -1.820E-03
 807  8.79428218   0.764  -1.32587   3.63551   6.93985   1.94980   0.04843   1.002E+00   0.000E+00  -1.800E-03
 808  8.79527612   0.764  -1.32586   3.63551   6.93985   1.94979   0.04840   1.002E+00   0.000E+00  -1.781E-03
 809  8.79626778   0.764  -1.32584   3.63551   6.93985   1.94977   0.04838   1.002E+00   0.000E+00  -1.762E-03
 810  8.79725719   0.764  -1.32583   3.63551   6.93984   1.94976   0.04836   1.002E+00   0.000E+00  -1.742E-03
 811  8.79824435   0.764  -1.32582   3.63551   6.93984   1.94975   0.04833   1.002E+00   0.000E+00  -1.728E-03
 812  8.79922926   0.764  -1.32581   3.63551   6.93984   1.94975   0.04832   1.002E+00   0.000E+00  -1.721E-03
 813  8.80021195   0.764  -1.32579   3.63551   6.93984   1.94975   0.04830   1.002E+00   0.000E+00  -1.714E-03
 814  8.80119243   0.764  -1.32578   3.63551   6.93984   1.94975   0.04828   1.002E+00   0.000E+00  -1.707E-03
 815  8.80217069   0.764  -1.32577   3.63551   6.93984   1.94975   0.04827   1.002E+00   0.000E+00  -1.700E-03
 816  8.80314675   0.764  -1.32576   3.63551   6.93984   1.94975   0.04825   1.002E+00   0.000E+00  -1.694E-03
 817  8.80412063   0.764  -1.32575   3.63551   6.93983   1.94974   0.04823   1.002E+00   0.000E+00  -1.687E-03
 818  8.80509233   0.764  -1.32574   3.63551   6.93983   1.94974   0.04821   1.002E+00   0.000E+00  -1.680E-03
 819  8.80606185   0.764  -1.32573   3.63551   6.93983   1.94974   0.04820   1.002E+00   0.000E+00  -1.673E-03
 820  8.80702922   0.764  -1.32572   3.63551   6.93983   1.94974   0.04818   1.002E+00   0.000E+00  -1.666E-03
 821  8.80799444   0.764  -1.32571   3.63551   6.93983   1.94974   0.04816   1.002E+00   0.000E+00  -1.659E-03
 822  8.80895752   0.764  -1.32570   3.63551   6.93983   1.94974   0.04815   1.002E+00   0.000E+00  -1.653E-03
 823  8.80991846   0.764  -1.32569   3.63552   6.93983   1.94974   0.04813   1.002E+00   0.000E+00  -1.646E-03
 824  8.81087729   0.764  -1.32568   3.63552   6.93983   1.94974   0.04811   1.002E+00   0.000E+00  -1.639E-03
 825  8.81183400   0.764  -1.32567   3.63552   6.93983   1.94974   0.04810   1.002E+00   0.000E+00  -1.632E-03
 826  8.81278861   0.764  -1.32565   3.63552   6.93983   1.94974   0.04808   1.002E+00   0.000E+00  -1.625E-03
 827  8.81374113   0.764  -1.32564   3.63552   6.93982   1.94974   0.04806   1.002E+00   0.000E+00  -1.619E-03
 828  8.81469156   0.764  -1.32563   3.63552   6.93982   1.94974   0.04804   1.002E+00   0.000E+00  -1.612E-03
 829  8.81563991   0.764  -1.32562   3.63552   6.93982   1.94973   0.04803   1.002E+00   0.000E+00  -1.605E-03
 830  8.81658620   0.764  -1.32561   3.63552   6.93982   1.94973   0.04801   1.002E+00   0.000E+00  -1.598E-03
 831  8.81753044   0.764  -1.32560   3.63552   6.93982   1.94973   0.04799   1.002E+00   0.000E+00  -1.591E-03
 832  8.81847262   0.764  -1.32559   3.63552   6.93982   1.94973   0.04798   1.002E+00   0.000E+00  -1.585E-03
 833  8.81941276   0.764  -1.32558   3.63552   6.93982   1.94973   0.04796   1.002E+00   0.000E+00  -1.578E-03
 834  8.82035088   0.764  -1.32557   3.63552   6.93982   1.94973   0.04794   1.002E+00   0.000E+00  -1.571E-03
 835  8.82128697   0.764  -1.32556   3.63552   6.93982   1.94973   0.04792   1.002E+00   0.000E+00  -1.564E-03
 836  8.82222105   0.764  -1.32555   3.63552   6.93982   1.94973   0.04791   1.002E+00   0.000E+00  -1.557E-03
 837  8.82315312   0.764  -1.32554   3.63552   6.93982   1.94973   0.04789   1.002E+00   0.000E+00  -1.550E-03
 838  8.82408320   0.764  -1.32553   3.63552   6.93981   1.94973   0.04787   1.002E+00   0.000E+00  -1.544E-03
 839  8.82501129   0.764  -1.32551   3.63552   6.93981   1.94973   0.04786   1.002E+00   0.000E+00  -1.537E-03
 840  8.82593740   0.764  -1.32550   3.63552   6.93981   1.94972   0.04784   1.002E+00   0.000E+00  -1.530E-03
 841  8.82686154   0.764  -1.32549   3.63552   6.93981   1.94972   0.04782   1.002E+00   0.000E+00  -1.523E-03
 842  8.82778371   0.764  -1.32548   3.63552   6.93981   1.94972   0.04781   1.002E+00   0.000E+00  -1.516E-03
 843  8.82870394   0.764  -1.32547   3.63552   6.93981   1.94972   0.04779   1.002E+00   0.000E+00  -1.510E-03
 844  8.82962222   0.764  -1.32546   3.63552   6.93981   1.94972   0.04777   1.002E+00   0.000E+00  -1.503E-03
 845  8.83053856   0.764  -1.32545   3.63552   6.93981   1.94972   0.04775   1.002E+00   0.000E+00  -1.496E-03
 846  8.83145297   0.763  -1.32544   3.63553   6.93981   1.94972   0.04774   1.002E+00   0.000E+00  -1.489E-03
 847  8.83236546   0.763  -1.32543   3.63553   6.93981   1.94972   0.04772   1.002E+00   0.000E+00  -1.482E-03
 848  8.83327603   0.763  -1.32542   3.63553   6.93981   1.94972   0.04770   1.002E+00   0.000E+00  -1.476E-03
 849  8.83418471   0.763  -1.32541   3.63553   6.93980   1.94972   0.04769   1.002E+00   0.000E+00  -1.469E-03
 850  8.83509148   0.763  -1.32540   3.63553   6.93980   1.94972   0.04767   1.002E+00   0.000E+00  -1.462E-03
 851  8.83599636   0.763  -1.32539   3.63553   6.93980   1.94972   0.04765   1.002E+00   0.000E+00  -1.455E-03
 852  8.83689937   0.763  -1.32537   3.63553   6.93980   1.94971   0.04763   1.002E+00   0.000E+00  -1.448E-03
 853  8.83780050   0.763  -1.32536   3.63553   6.93980   1.94971   0.04762   1.002E+00   0.000E+00  -1.441E-03
 854  8.83869976   0.763  -1.32535   3.63553   6.93980   1.94971   0.04760   1.002E+00   0.000E+00  -1.435E-03
 855  8.83959717   0.763  -1.32534   3.63553   6.93980   1.94971   0.04758   1.002E+00   0.000E+00  -1.428E-03
 856  8.84049272   0.763  -1.32533   3.63553   6.93980   1.94971   0.04757   1.002E+00   0.000E+00  -1.421E-03
 857  8.84138643   0.763  -1.32532   3.63553   6.93980   1.94971   0.04755   1.002E+00   0.000E+00  -1.414E-03
 858  8.84227831   0.763  -1.32531   3.63553   6.93980   1.94971   0.04753   1.002E+00   0.000E+00  -1.407E-03
 859  8.84316836   0.763  -1.32530   3.63553   6.93980   1.94971   0.04752   1.002E+00   0.000E+00  -1.401E-03
 860  8.84405659   0.763  -1.32529   3.63553   6.93979   1.94971   0.04750   1.002E+00   0.000E+00  -1.394E-03
 861  8.84494300   0.763  -1.32528   3.63553   6.93979   1.94971   0.04748   1.002E+00   0.000E+00  -1.387E-03
 862  8.84582761   0.763  -1.32527   3.63553   6.93979   1.94971   0.04746   1.002E+00   0.000E+00  -1.380E-03
 863  8.84671042   0.763  -1.32526   3.63553   6.93979   1.94971   0.04745   1.002E+00   0.000E+00  -1.373E-03
 864  8.84759145   0.763  -1.32525   3.63553   6.93979   1.94970   0.04743   1.002E+00   0.000E+00  -1.367E-03
 865  8.84847068   0.763  -1.32523   3.63553   6.93979   1.94970   0.04741   1.002E+00   0.000E+00  -1.360E-03
 866  8.84934814   0.763  -1.32522   3.63553   6.93979   1.94970   0.04740   1.002E+00   0.000E+00  -1.353E-03
 867  8.85022384   0.763  -1.32521   3.63553   6.93979   1.94970   0.04738   1.002E+00   0.000E+00  -1.346E-03
 868  8.85109776   0.763  -1.32520   3.63553   6.93979   1.94970   0.04736   1.002E+00   0.000E+00  -1.339E-03
 869  8.85196994   0.763  -1.32519   3.63553   6.93979   1.94970   0.04735   1.002E+00   0.000E+00  -1.332E-03
 870  8.85284037   0.763  -1.32518   3.63554   6.93978   1.94970   0.04733   1.002E+00   0.000E+00  -1.326E-03
 871  8.85370905   0.763  -1.32517   3.63554   6.93978   1.94970   0.04731   1.002E+00   0.000E+00  -1.319E-03
 872  8.85457600   0.763  -1.32516   3.63554   6.93978   1.94970   0.04729   1.002E+00   0.000E+00  -1.312E-03
 873  8.85544123   0.763  -1.32515   3.63554   6.93978   1.94970   0.04728   1.002E+00   0.000E+00  -1.305E-03
 874  8.85630473   0.763  -1.32514   3.63554   6.93978   1.94970   0.04726   1.002E+00   0.000E+00  -1.298E-03
 875  8.85716652   0.763  -1.32513   3.63554   6.93978   1.94969   0.04724   1.002E+00   0.000E+00  -1.292E-03
 876  8.85802660   0.763  -1.32512   3.63554   6.93978   1.94969   0.04723   1.002E+00   0.000E+00  -1.285E-03
 877  8.85888499   0.763  -1.32511   3.63554   6.93978   1.94969   0.04721   1.002E+00   0.000E+00  -1.278E-03
 878  8.85974168   0.763  -1.32509   3.63554   6.93978   1.94969   0.04719   1.002E+00   0.000E+00  -1.271E-03
 879  8.86059668   0.763  -1.32508   3.63554   6.93978   1.94969   0.04717   1.002E+00   0.000E+00  -1.264E-03
 880  8.86145001   0.763  -1.32507   3.63554   6.93978   1.94969   0.04716   1.002E+00   0.000E+00  -1.258E-03
 881  8.86230166   0.763  -1.32506   3.63554   6.93977   1.94969   0.04714   1.001E+00   0.000E+00  -1.251E-03
 882  8.86315164   0.763  -1.32505   3.63554   6.93977   1.94969   0.04712   1.001E+00   0.000E+00  -1.244E-03
 883  8.86399996   0.763  -1.32504   3.63554   6.93977   1.94969   0.04711   1.001E+00   0.000E+00  -1.237E-03
 884  8.86484663   0.763  -1.32503   3.63554   6.93977   1.94969   0.04709   1.001E+00   0.000E+00  -1.230E-03
 885  8.86569165   0.763  -1.32502   3.63554   6.93977   1.94969   0.04707   1.001E+00   0.000E+00  -1.223E-03
 886  8.86653503   0.763  -1.32501   3.63554   6.93977   1.94969   0.04706   1.001E+00   0.000E+00  -1.217E-03
 887  8.86737678   0.763  -1.32500   3.63554   6.93977   1.94968   0.04704   1.001E+00   0.000E+00  -1.210E-03
 888  8.86821690   0.763  -1.32499   3.63554   6.93977   1.94968   0.04702   1.001E+00   0.000E+00  -1.203E-03
 889  8.86905540   0.763  -1.32498   3.63554   6.93977   1.94968   0.04700   1.001E+00   0.000E+00  -1.196E-03
 890  8.86989228   0.763  -1.32497   3.63554   6.93977   1.94968   0.04699   1.001E+00   0.000E+00  -1.189E-03
 891  8.87072755   0.763  -1.32495   3.63554   6.93977   1.94968   0.04697   1.001E+00   0.000E+00  -1.183E-03
 892  8.87156121   0.763  -1.32494   3.63554   6.93976   1.94968   0.04695   1.001E+00   0.000E+00  -1.176E-03
 893  8.87239328   0.763  -1.32493   3.63555   6.93976   1.94968   0.04694   1.001E+00   0.000E+00  -1.169E-03
 894  8.87322376   0.763  -1.32492   3.63555   6.93976   1.94968   0.04692   1.001E+00   0.000E+00  -1.162E-03
 895  8.87405266   0.763  -1.32491   3.63555   6.93976   1.94968   0.04690   1.001E+00   0.000E+00  -1.155E-03
 896  8.87487997   0.763  -1.32490   3.63555   6.93976   1.94968   0.04688   1.001E+00   0.000E+00  -1.148E-03
 897  8.87570571   0.763  -1.32489   3.63555   6.93976   1.94968   0.04687   1.001E+00   0.000E+00  -1.142E-03
 898  8.87652989   0.763  -1.32488   3.63555   6.93976   1.94968   0.04685   1.001E+00   0.000E+00  -1.135E-03
 899  8.87735250   0.763  -1.32487   3.63555   6.93976   1.94967   0.04683   1.001E+00   0.000E+00  -1.128E-03
 900  8.87817356   0.763  -1.32486   3.63555   6.93976   1.94967   0.04682   1.001E+00   0.000E+00  -1.121E-03
 901  8.87899307   0.763  -1.32485   3.63555   6.93976   1.94967   0.04680   1.001E+00   0.000E+00  -1.114E-03
 902  8.87981104   0.763  -1.32484   3.63555   6.93976   1.94967   0.04678   1.001E+00   0.000E+00  -1.108E-03
 903  8.88062746   0.763  -1.32483   3.63555   6.93975   1.94967   0.04677   1.001E+00   0.000E+00  -1.101E-03
 904  8.88144236   0.763  -1.32481   3.63555   6.93975   1.94967   0.04675   1.001E+00   0.000E+00  -1.094E-03
 905  8.88225573   0.763  -1.32480   3.63555   6.93975   1.94967   0.04673   1.001E+00   0.000E+00  -1.087E-03
 906  8.88306758   0.763  -1.32479   3.63555   6.93975   1.94967   0.04671   1.001E+00   0.000E+00  -1.080E-03
 907  8.88387792   0.763  -1.32478   3.63555   6.93975   1.94967   0.04670   1.001E+00   0.000E+00  -1.074E-03
 908  8.88468674   0.763  -1.32477   3.63555   6.93975   1.94967   0.04668   1.001E+00   0.000E+00  -1.067E-03
 909  8.88549406   0.763  -1.32476   3.63555   6.93975   1.94967   0.04666   1.001E+00   0.000E+00  -1.060E-03
 910  8.88629989   0.763  -1.32475   3.63555   6.93975   1.94966   0.04665   1.001E+00   0.000E+00  -1.053E-03
 911  8.88710422   0.763  -1.32474   3.63555   6.93975   1.94966   0.04663   1.001E+00   0.000E+00  -1.046E-03
 912  8.88790706   0.763  -1.32473   3.63555   6.93975   1.94966   0.04661   1.001E+00   0.000E+00  -1.039E-03
 913  8.88870843   0.763  -1.32472   3.63555   6.93975   1.94966   0.04659   1.001E+00   0.000E+00  -1.033E-03
 914  8.88950831   0.763  -1.32471   3.63555   6.93974   1.94966   0.04658   1.001E+00   0.000E+00  -1.026E-03
 915  8.89030673   0.763  -1.32470   3.63555   6.93974   1.94966   0.04656   1.001E+00   0.000E+00  -1.019E-03
 916  8.89110368   0.763  -1.32469   3.63556   6.93974   1.94966   0.04654   1.001E+00   0.000E+00  -1.012E-03
 917  8.89189917   0.763  -1.32467   3.63556   6.93974   1.94966   0.04653   1.001E+00   0.000E+00  -1.005E-03
 918  8.89269321   0.763  -1.32466   3.63556   6.93974   1.94966   0.04651   1.001E+00   0.000E+00  -9.986E-04
 919  8.89348580   0.763  -1.32465   3.63556   6.93974   1.94966   0.04649   1.001E+00   0.000E+00  -9.918E-04
 920  8.89427694   0.763  -1.32464   3.63556   6.93974   1.94966   0.04648   1.001E+00   0.000E+00  -9.850E-04
 921  8.89506665   0.763  -1.32463   3.63556   6.93974   1.94966   0.04646   1.001E+00   0.000E+00  -9.782E-04
 922  8.89585492   0.763  -1.32462   3.63556   6.93974   1.94965   0.04644   1.001E+00   0.000E+00  -9.714E-04
 923  8.89664177   0.763  -1.32461   3.63556   6.93974   1.94965   0.04642   1.001E+00   0.000E+00  -9.646E-04
 924  8.89742719   0.763  -1.32460   3.63556   6.93973   1.94965   0.04641   1.001E+00   0.000E+00  -9.577E-04
 925  8.89821119   0.763  -1.32459   3.63556   6.93973   1.94965   0.04639   1.001E+00   0.000E+00  -9.509E-04
 926  8.89899378   0.763  -1.32458   3.63556   6.93973   1.94965   0.04637   1.001E+00   0.000E+00  -9.441E-04
 927  8.89977497   0.763  -1.32457   3.63556   6.93973   1.94965   0.04636   1.001E+00   0.000E+00  -9.373E-04
 928  8.90055475   0.763  -1.32456   3.63556   6.93973   1.94965   0.04634   1.001E+00   0.000E+00  -9.305E-04
 929  8.90133313   0.762  -1.32455   3.63556   6.93973   1.94965   0.04632   1.001E+00   0.000E+00  -9.237E-04
 930  8.90211012   0.762  -1.32453   3.63556   6.93973   1.94965   0.04631   1.001E+00   0.000E+00  -9.169E-04
 931  8.90288572   0.762  -1.32452   3.63556   6.93973   1.94965   0.04629   1.001E+00   0.000E+00  -9.100E-04
 932  8.90365994   0.762  -1.32451   3.63556   6.93973   1.94965   0.04627   1.001E+00   0.000E+00  -9.032E-04
 933  8.90443278   0.762  -1.32450   3.63556   6.93973   1.94965   0.04625   1.001E+00   0.000E+00  -8.964E-04
 934  8.90520425   0.762  -1.32449   3.63556   6.93973   1.94964   0.04624   1.001E+00   0.000E+00  -8.896E-04
 935  8.90597436   0.762  -1.32448   3.63556   6.93972   1.94964   0.04622   1.001E+00   0.000E+00  -8.828E-04
 936  8.90674309   0.762  -1.32447   3.63556   6.93972   1.94964   0.04620   1.001E+00   0.000E+00  -8.760E-04
 937  8.90751047   0.762  -1.32446   3.63556   6.93972   1.94964   0.04619   1.001E+00   0.000E+00  -8.692E-04
 938  8.90827650   0.762  -1.32445   3.63556   6.93972   1.94964   0.04617   1.001E+00   0.000E+00  -8.624E-04
 939  8.90904118   0.762  -1.32444   3.63556   6.93972   1.94964   0.04615   1.001E+00   0.000E+00  -8.555E-04
 940  8.90980451   0.762  -1.32443   3.63557   6.93972   1.94964   0.04613   1.001E+00   0.000E+00  -8.487E-04
 941  8.91056651   0.762  -1.32442   3.63557   6.93972   1.94964   0.04612   1.001E+00   0.000E+00  -8.419E-04
 942  8.91132717   0.762  -1.32441   3.63557   6.93972   1.94964   0.04610   1.001E+00   0.000E+00  -8.351E-04
 943  8.91208649   0.762  -1.32439   3.63557   6.93972   1.94964   0.04608   1.001E+00   0.000E+00  -8.283E-04
 944  8.91284450   0.762  -1.32438   3.63557   6.93972   1.94964   0.04607   1.001E+00   0.000E+00  -8.215E-04
 945  8.91360118   0.762  -1.32437   3.63557   6.93972   1.94963   0.04605   1.001E+00   0.000E+00  -8.147E-04
 946  8.91435655   0.762  -1.32436   3.63557   6.93971   1.94963   0.04603   1.001E+00   0.000E+00  -8.079E-04
 947  8.91511061   0.762  -1.32435   3.63557   6.93971   1.94963   0.04602   1.001E+00   0.000E+00  -8.010E-04
 948  8.91586336   0.762  -1.32434   3.63557   6.93971   1.94963   0.04600   1.001E+00   0.000E+00  -7.942E-04
 949  8.91661480   0.762  -1.32433   3.63557   6.93971   1.94963   0.04598   1.001E+00   0.000E+00  -7.874E-04
 950  8.91736495   0.762  -1.32432   3.63557   6.93971   1.94963   0.04596   1.001E+00   0.000E+00  -7.806E-04
 951  8.91811381   0.762  -1.32431   3.63557   6.93971   1.94963   0.04595   1.001E+00   0.000E+00  -7.750E-04
 952  8.91886137   0.762  -1.32430   3.63557   6.93971   1.94963   0.04592   1.001E+00   0.000E+00  -7.748E-04
 953  8.91960765   0.762  -1.32429   3.63557   6.93971   1.94963   0.04589   1.001E+00   0.000E+00  -7.747E-04
 954  8.92035265   0.762  -1.32428   3.63557   6.93971   1.94963   0.04586   1.001E+00   0.000E+00  -7.745E-04
 955  8.92109638   0.762  -1.32427   3.63557   6.93971   1.94963   0.04584   1.001E+00   0.000E+00  -7.744E-04
 956  8.92183883   0.762  -1.32425   3.63557   6.93971   1.94963   0.04581   1.001E+00   0.000E+00  -7.742E-04
 957  8.92258002   0.762  -1.32424   3.63557   6.93970   1.94963   0.04578   1.001E+00   0.000E+00  -7.741E-04
 958  8.92331995   0.762  -1.32423   3.63557   6.93970   1.94963   0.04575   1.001E+00   0.000E+00  -7.739E-04
 959  8.92405861   0.762  -1.32422   3.63557   6.93970   1.94963   0.04573   1.001E+00   0.000E+00  -7.738E-04
 960  8.92479602   0.762  -1.32421   3.63557   6.93970   1.94963   0.04570   1.001E+00   0.000E+00  -7.736E-04
 961  8.92553218   0.762  -1.32420   3.63557   6.93970   1.94963   0.04567   1.001E+00   0.000E+00  -7.735E-04
 962  8.92626710   0.762  -1.32419   3.63557   6.93970   1.94963   0.04564   1.001E+00   0.000E+00  -7.733E-04
 963  8.92700077   0.762  -1.32418   3.63557   6.93970   1.94963   0.04562   1.001E+00   0.000E+00  -7.732E-04
 964  8.92773321   0.762  -1.32417   3.63557   6.93970   1.94963   0.04559   1.001E+00   0.000E+00  -7.730E-04
 965  8.92846441   0.762  -1.32416   3.63558   6.93970   1.94963   0.04556   1.001E+00   0.000E+00  -7.729E-04
 966  8.92919439   0.762  -1.32415   3.63558   6.93970   1.94963   0.04554   1.001E+00   0.000E+00  -7.727E-04
 967  8.92992314   0.762  -1.32414   3.63558   6.93970   1.94963   0.04551   1.001E+00   0.000E+00  -7.726E-04
 968  8.93065067   0.762  -1.32412   3.63558   6.93970   1.94963   0.04548   1.001E+00   0.000E+00  -7.724E-04
 969  8.93137698   0.762  -1.32411   3.63558   6.93969   1.94963   0.04545   1.001E+00   0.000E+00  -7.723E-04
 970  8.93210208   0.762  -1.32410   3.63558   6.93969   1.94963   0.04543   1.001E+00   0.000E+00  -7.721E-04
 971  8.93282597   0.762  -1.32409   3.63558   6.93969   1.94963   0.04540   1.001E+00   0.000E+00  -7.720E-04
 972  8.93354866   0.762  -1.32408   3.63558   6.93969   1.94963   0.04537   1.001E+00   0.000E+00  -7.718E-04
 973  8.93427014   0.762  -1.32407   3.63558   6.93969   1.94963   0.04534   1.001E+00   0.000E+00  -7.717E-04
 974  8.93499043   0.762  -1.32406   3.63558   6.93969   1.94963   0.04532   1.001E+00   0.000E+00  -7.715E-04
 975  8.93570953   0.762  -1.32405   3.63558   6.93969   1.94962   0.04529   1.001E+00   0.000E+00  -7.714E-04
 976  8.93642744   0.762  -1.32404   3.63558   6.93969   1.94962   0.04526   1.001E+00   0.000E+00  -7.712E-04
 977  8.93714416   0.762  -1.32403   3.63558   6.93969   1.94962   0.04523   1.001E+00   0.000E+00  -7.711E-04
 978  8.93785970   0.762  -1.32402   3.63558   6.93969   1.94962   0.04521   1.001E+00   0.000E+00  -7.709E-04
 979  8.93857407   0.762  -1.32401   3.63558   6.93969   1.94962   0.04518   1.001E+00   0.000E+00  -7.708E-04
 980  8.93928726   0.762  -1.32400   3.63558   6.93969   1.94962   0.04515   1.001E+00   0.000E+00  -7.706E-04
 981  8.93999928   0.762  -1.32398   3.63558   6.93968   1.94962   0.04513   1.001E+00   0.000E+00  -7.705E-04
 982  8.94071014   0.762  -1.32397   3.63558   6.93968   1.94962   0.04510   1.001E+00   0.000E+00  -7.703E-04
 983  8.94141984   0.762  -1.32396   3.63558   6.93968   1.94962   0.04507   1.001E+00   0.000E+00  -7.702E-04
 984  8.94212837   0.762  -1.32395   3.63558   6.93968   1.94962   0.04504   1.001E+00   0.000E+00  -7.700E-04
 985  8.94283576   0.762  -1.32394   3.63558   6.93968   1.94962   0.04502   1.001E+00   0.000E+00  -7.699E-04
 986  8.94354199   0.762  -1.32393   3.63558   6.93968   1.94962   0.04499   1.001E+00   0.000E+00  -7.697E-04
 987  8.94424708   0.762  -1.32392   3.63558   6.93968   1.94962   0.04496   1.001E+00   0.000E+00  -7.696E-04
 988  8.94495102   0.762  -1.32391   3.63558   6.93968   1.94962   0.04493   1.001E+00   0.000E+00  -7.694E-04
 989  8.94565383   0.762  -1.32390   3.63558   6.93968   1.94962   0.04491   1.001E+00   0.000E+00  -7.693E-04
 990  8.94635550   0.762  -1.32389   3.63558   6.93968   1.94962   0.04488   1.001E+00   0.000E+00  -7.691E-04
 991  8.94705603   0.762  -1.32388   3.63558   6.93968   1.94962   0.04485   1.001E+00   0.000E+00  -7.690E-04
 992  8.94775544   0.762  -1.32387   3.63558   6.93967   1.94962   0.04482   1.001E+00   0.000E+00  -7.688E-04
 993  8.94845373   0.762  -1.32386   3.63559   6.93967   1.94962   0.04480   1.001E+00   0.000E+00  -7.687E-04
 994  8.94915089   0.762  -1.32384   3.63559   6.93967   1.94962   0.04477   1.001E+00   0.000E+00  -7.685E-04
 995  8.94984694   0.762  -1.32383   3.63559   6.93967   1.94962   0.04474   1.001E+00   0.000E+00  -7.684E-04
 996  8.95054187   0.762  -1.32382   3.63559   6.93967   1.94962   0.04472   1.001E+00   0.000E+00  -7.682E-04
 997  8.95123569   0.762  -1.32381   3.63559   6.93967   1.94962   0.04469   1.001E+00   0.000E+00  -7.681E-04
 998  8.95192841   0.762  -1.32380   3.63559   6.93967   1.94962   0.04466   1.001E+00   0.000E+00  -7.679E-04
 999  8.95262002   0.762  -1.32379   3.63559   6.93967   1.94962   0.04463   1.001E+00   0.000E+00  -7.678E-04
1000  8.95331054   0.762  -1.32378   3.63559   6.93967   1.94962   0.04461   1.001E+00   0.000E+00  -7.676E-04
1001  8.95399995   0.762  -1.32377   3.63559   6.93967   1.94962   0.04458   1.001E+00   0.000E+00  -7.675E-04
1002  8.95468828   0.762  -1.32376   3.63559   6.93967   1.94962   0.04455   1.001E+00   0.000E+00  -7.673E-04
1003  8.95537551   0.762  -1.32375   3.63559   6.93967   1.94962   0.04452   1.001E+00   0.000E+00  -7.672E-04
1004  8.95606166   0.762  -1.32374   3.63559   6.93966   1.94962   0.04450   1.001E+00   0.000E+00  -7.670E-04
1005  8.95674673   0.762  -1.32373   3.63559   6.93966   1.94962   0.04447   1.001E+00   0.000E+00  -7.669E-04
1006  8.95743072   0.762  -1.32372   3.63559   6.93966   1.94962   0.04444   1.001E+00   0.000E+00  -7.667E-04
1007  8.95811363   0.762  -1.32370   3.63559   6.93966   1.94962   0.04442   1.001E+00   0.000E+00  -7.666E-04
1008  8.95879547   0.762  -1.32369   3.63559   6.93966   1.94962   0.04439   1.001E+00   0.000E+00  -7.664E-04
1009  8.95947624   0.761  -1.32368   3.63559   6.93966   1.94962   0.04436   1.001E+00   0.000E+00  -7.663E-04
1010  8.96015595   0.761  -1.32367   3.63559   6.93966   1.94962   0.04433   1.001E+00   0.000E+00  -7.661E-04
1011  8.96083459   0.761  -1.32366   3.63559   6.93966   1.94962   0.04431   1.001E+00   0.000E+00  -7.660E-04
1012  8.96151218   0.761  -1.32365   3.63559   6.93966   1.94962   0.04428   1.001E+00   0.000E+00  -7.658E-04
1013  8.96218871   0.761  -1.32364   3.63559   6.93966   1.94962   0.04425   1.001E+00   0.000E+00  -7.657E-04
1014  8.96286418   0.761  -1.32363   3.63559   6.93966   1.94962   0.04422   1.001E+00   0.000E+00  -7.655E-04
1015  8.96353861   0.761  -1.32362   3.63559   6.93966   1.94962   0.04420   1.001E+00   0.000E+00  -7.654E-04
1016  8.96421199   0.761  -1.32361   3.63559   6.93965   1.94962   0.04417   1.001E+00   0.000E+00  -7.652E-04
1017  8.96488433   0.761  -1.32360   3.63559   6.93965   1.94962   0.04414   1.001E+00   0.000E+00  -7.651E-04
1018  8.96555564   0.761  -1.32359   3.63559   6.93965   1.94962   0.04411   1.001E+00   0.000E+00  -7.649E-04
1019  8.96622590   0.761  -1.32358   3.63559   6.93965   1.94962   0.04409   1.001E+00   0.000E+00  -7.648E-04
1020  8.96689513   0.761  -1.32356   3.63559   6.93965   1.94962   0.04406   1.001E+00   0.000E+00  -7.646E-04
1021  8.96756333   0.761  -1.32355   3.63560   6.93965   1.94961   0.04403   1.001E+00   0.000E+00  -7.645E-04
1022  8.96823051   0.761  -1.32354   3.63560   6.93965   1.94961   0.04401   1.001E+00   0.000E+00  -7.643E-04
1023  8.96889666   0.761  -1.32353   3.63560   6.93965   1.94961   0.04398   1.001E+00   0.000E+00  -7.642E-04
1024  8.96956179   0.761  -1.32352   3.63560   6.93965   1.94961   0.04395   1.001E+00   0.000E+00  -7.640E-04
1025  8.97022591   0.761  -1.32351   3.63560   6.93965   1.94961   0.04392   1.001E+00   0.000E+00  -7.639E-04
1026  8.97088901   0.761  -1.32350   3.63560   6.93965   1.94961   0.04390   1.001E+00   0.000E+00  -7.637E-04
1027  8.97155110   0.761  -1.32349   3.63560   6.93964   1.94961   0.04387   1.001E+00   0.000E+00  -7.636E-04
1028  8.97221218   0.761  -1.32348   3.63560   6.93964   1.94961   0.04384   1.001E+00   0.000E+00  -7.634E-04
1029  8.97287226   0.761  -1.32347   3.63560   6.93964   1.94961   0.04381   1.001E+00   0.000E+00  -7.633E-04
1030  8.97353134   0.761  -1.32346   3.63560   6.93964   1.94961   0.04379   1.001E+00   0.000E+00  -7.631E-04
1031  8.97418941   0.761  -1.32345   3.63560   6.93964   1.94961   0.04376   1.001E+00   0.000E+00  -7.630E-04
1032  8.97484650   0.761  -1.32344   3.63560   6.93964   1.94961   0.04373   1.001E+00   0.000E+00  -7.628E-04
1033  8.97550258   0.761  -1.32342   3.63560   6.93964   1.94961   0.04370   1.001E+00   0.000E+00  -7.627E-04
1034  8.97615768   0.761  -1.32341   3.63560   6.93964   1.94961   0.04368   1.001E+00   0.000E+00  -7.625E-04
1035  8.97681180   0.761  -1.32340   3.63560   6.93964   1.94961   0.04365   1.001E+00   0.000E+00  -7.624E-04
1036  8.97746493   0.761  -1.32339   3.63560   6.93964   1.94961   0.04362   1.001E+00   0.000E+00  -7.622E-04
1037  8.97811707   0.761  -1.32338   3.63560   6.93964   1.94961   0.04360   1.001E+00   0.000E+00  -7.621E-04
1038  8.97876824   0.761  -1.32337   3.63560   6.93964   1.94961   0.04357   1.001E+00   0.000E+00  -7.619E-04
1039  8.97941844   0.761  -1.32336   3.63560   6.93963   1.94961   0.04354   1.001E+00   0.000E+00  -7.618E-04
1040  8.98006766   0.761  -1.32335   3.63560   6.93963   1.94961   0.04351   1.001E+00   0.000E+00  -7.616E-04
1041  8.98071592   0.761  -1.32334   3.63560   6.93963   1.94961   0.04349   1.001E+00   0.000E+00  -7.615E-04
1042  8.98136321   0.761  -1.32333   3.63560   6.93963   1.94961   0.04346   1.001E+00   0.000E+00  -7.613E-04
1043  8.98200953   0.761  -1.32332   3.63560   6.93963   1.94961   0.04343   1.001E+00   0.000E+00  -7.612E-04
1044  8.98265489   0.761  -1.32331   3.63560   6.93963   1.94961   0.04340   1.001E+00   0.000E+00  -7.610E-04
1045  8.98329930   0.761  -1.32330   3.63560   6.93963   1.94961   0.04338   1.001E+00   0.000E+00  -7.609E-04
1046  8.98394275   0.761  -1.32328   3.63560   6.93963   1.94961   0.04335   1.001E+00   0.000E+00  -7.607E-04
1047  8.98458525   0.761  -1.32327   3.63560   6.93963   1.94961   0.04332   1.001E+00   0.000E+00  -7.606E-04
1048  8.98522680   0.761  -1.32326   3.63560   6.93963   1.94961   0.04329   1.001E+00   0.000E+00  -7.604E-04
1049  8.98586741   0.761  -1.32325   3.63561   6.93963   1.94961   0.04327   1.001E+00   0.000E+00  -7.603E-04
1050  8.98650707   0.761  -1.32324   3.63561   6.93963   1.94961   0.04324   1.001E+00   0.000E+00  -7.601E-04
1051  8.98714579   0.761  -1.32323   3.63561   6.93962   1.94961   0.04321   1.001E+00   0.000E+00  -7.600E-04
1052  8.98778357   0.761  -1.32322   3.63561   6.93962   1.94961   0.04319   1.001E+00   0.000E+00  -7.598E-04
1053  8.98842042   0.761  -1.32321   3.63561   6.93962   1.94961   0.04316   1.001E+00   0.000E+00  -7.597E-04
1054  8.98905633   0.761  -1.32320   3.63561   6.93962   1.94961   0.04313   1.001E+00   0.000E+00  -7.595E-04
1055  8.98969132   0.761  -1.32319   3.63561   6.93962   1.94961   0.04310   1.001E+00   0.000E+00  -7.594E-04
1056  8.99032538   0.761  -1.32318   3.63561   6.93962   1.94961   0.04308   1.001E+00   0.000E+00  -7.592E-04
1057  8.99095851   0.761  -1.32317   3.63561   6.93962   1.94961   0.04305   1.001E+00   0.000E+00  -7.591E-04
1058  8.99159072   0.761  -1.32316   3.63561   6.93962   1.94961   0.04302   1.001E+00   0.000E+00  -7.589E-04
1059  8.99222202   0.761  -1.32314   3.63561   6.93962   1.94961   0.04299   1.001E+00   0.000E+00  -7.588E-04
1060  8.99285239   0.761  -1.32313   3.63561   6.93962   1.94961   0.04297   1.001E+00   0.000E+00  -7.586E-04
1061  8.99348186   0.761  -1.32312   3.63561   6.93962   1.94961   0.04294   1.001E+00   0.000E+00  -7.585E-04
1062  8.99411041   0.761  -1.32311   3.63561   6.93961   1.94961   0.04291   1.001E+00   0.000E+00  -7.583E-04
1063  8.99473805   0.761  -1.32310   3.63561   6.93961   1.94961   0.04289   1.001E+00   0.000E+00  -7.582E-04
1064  8.99536479   0.761  -1.32309   3.63561   6.93961   1.94961   0.04286   1.001E+00   0.000E+00  -7.580E-04
1065  8.99599062   0.761  -1.32308   3.63561   6.93961   1.94961   0.04283   1.001E+00   0.000E+00  -7.579E-04
1066  8.99661556   0.761  -1.32307   3.63561   6.93961   1.94961   0.04280   1.001E+00   0.000E+00  -7.577E-04
1067  8.99723959   0.761  -1.32306   3.63561   6.93961   1.94961   0.04278   1.001E+00   0.000E+00  -7.576E-04
1068  8.99786273   0.761  -1.32305   3.63561   6.93961   1.94960   0.04275   1.001E+00   0.000E+00  -7.574E-04
1069  8.99848498   0.761  -1.32304   3.63561   6.93961   1.94960   0.04272   1.001E+00   0.000E+00  -7.573E-04
1070  8.99910634   0.761  -1.32303   3.63561   6.93961   1.94960   0.04269   1.001E+00   0.000E+00  -7.571E-04
1071  8.99972681   0.761  -1.32302   3.63561   6.93961   1.94960   0.04267   1.001E+00   0.000E+00  -7.570E-04
1072  9.00034639   0.761  -1.32300   3.63561   6.93961   1.94960   0.04264   1.001E+00   0.000E+00  -7.568E-04
1073  9.00096509   0.761  -1.32299   3.63561   6.93961   1.94960   0.04261   1.001E+00   0.000E+00  -7.567E-04
1074  9.00158292   0.761  -1.32298   3.63561   6.93960   1.94960   0.04258   1.001E+00   0.000E+00  -7.565E-04
1075  9.00219986   0.761  -1.32297   3.63561   6.93960   1.94960   0.04256   1.001E+00   0.000E+00  -7.564E-04
1076  9.00281593   0.761  -1.32296   3.63561   6.93960   1.94960   0.04253   1.001E+00   0.000E+00  -7.562E-04
1077  9.00343113   0.761  -1.32295   3.63562   6.93960   1.94960   0.04250   1.001E+00   0.000E+00  -7.561E-04
1078  9.00404545   0.761  -1.32294   3.63562   6.93960   1.94960   0.04248   1.001E+00   0.000E+00  -7.559E-04
1079  9.00465891   0.761  -1.32293   3.63562   6.93960   1.94960   0.04245   1.001E+00   0.000E+00  -7.558E-04
1080  9.00527150   0.761  -1.32292   3.63562   6.93960   1.94960   0.04242   1.001E+00   0.000E+00  -7.556E-04
1081  9.00588323   0.761  -1.32291   3.63562   6.93960   1.94960   0.04239   1.001E+00   0.000E+00  -7.555E-04
1082  9.00649410   0.761  -1.32290   3.63562   6.93960   1.94960   0.04237   1.001E+00   0.000E+00  -7.553E-04
1083  9.00710411   0.761  -1.32289   3.63562   6.93960   1.94960   0.04234   1.001E+00   0.000E+00  -7.552E-04
1084  9.00771327   0.761  -1.32288   3.63562   6.93960   1.94960   0.04231   1.001E+00   0.000E+00  -7.550E-04
1085  9.00832157   0.761  -1.32286   3.63562   6.93960   1.94960   0.04228   1.001E+00   0.000E+00  -7.549E-04
1086  9.00892903   0.761  -1.32285   3.63562   6.93959   1.94960   0.04226   1.001E+00   0.000E+00  -7.547E-04
1087  9.00953563   0.761  -1.32284   3.63562   6.93959   1.94960   0.04223   1.001E+00   0.000E+00  -7.546E-04
1088  9.01014139   0.760  -1.32283   3.63562   6.93959   1.94960   0.04220   1.001E+00   0.000E+00  -7.544E-04
1089  9.01074630   0.760  -1.32282   3.63562   6.93959   1.94960   0.04217   1.001E+00   0.000E+00  -7.543E-04
1090  9.01135037   0.760  -1.32281   3.63562   6.93959   1.94960   0.04215   1.001E+00   0.000E+00  -7.541E-04
1091  9.01195361   0.760  -1.32280   3.63562   6.93959   1.94960   0.04212   1.001E+00   0.000E+00  -7.540E-04
